#  E (eV)   dos(E)     Int dos(E) EFermi =    6.133 eV
  -9.000  0.0000E+00  0.0000E+00
  -8.990  0.0000E+00  0.0000E+00
  -8.980  0.0000E+00  0.0000E+00
  -8.970  0.0000E+00  0.0000E+00
  -8.960  0.0000E+00  0.0000E+00
  -8.950  0.0000E+00  0.0000E+00
  -8.940  0.0000E+00  0.0000E+00
  -8.930  0.0000E+00  0.0000E+00
  -8.920  0.0000E+00  0.0000E+00
  -8.910  0.0000E+00  0.0000E+00
  -8.900  0.0000E+00  0.0000E+00
  -8.890  0.0000E+00  0.0000E+00
  -8.880  0.0000E+00  0.0000E+00
  -8.870  0.0000E+00  0.0000E+00
  -8.860  0.0000E+00  0.0000E+00
  -8.850  0.0000E+00  0.0000E+00
  -8.840  0.0000E+00  0.0000E+00
  -8.830  0.0000E+00  0.0000E+00
  -8.820  0.0000E+00  0.0000E+00
  -8.810  0.0000E+00  0.0000E+00
  -8.800  0.0000E+00  0.0000E+00
  -8.790  0.0000E+00  0.0000E+00
  -8.780  0.0000E+00  0.0000E+00
  -8.770  0.0000E+00  0.0000E+00
  -8.760  0.0000E+00  0.0000E+00
  -8.750  0.0000E+00  0.0000E+00
  -8.740  0.0000E+00  0.0000E+00
  -8.730  0.0000E+00  0.0000E+00
  -8.720  0.0000E+00  0.0000E+00
  -8.710  0.0000E+00  0.0000E+00
  -8.700  0.0000E+00  0.0000E+00
  -8.690  0.0000E+00  0.0000E+00
  -8.680  0.0000E+00  0.0000E+00
  -8.670  0.0000E+00  0.0000E+00
  -8.660  0.0000E+00  0.0000E+00
  -8.650  0.0000E+00  0.0000E+00
  -8.640  0.0000E+00  0.0000E+00
  -8.630  0.0000E+00  0.0000E+00
  -8.620  0.0000E+00  0.0000E+00
  -8.610  0.0000E+00  0.0000E+00
  -8.600  0.0000E+00  0.0000E+00
  -8.590  0.0000E+00  0.0000E+00
  -8.580  0.0000E+00  0.0000E+00
  -8.570  0.0000E+00  0.0000E+00
  -8.560  0.0000E+00  0.0000E+00
  -8.550  0.0000E+00  0.0000E+00
  -8.540  0.0000E+00  0.0000E+00
  -8.530  0.0000E+00  0.0000E+00
  -8.520  0.0000E+00  0.0000E+00
  -8.510  0.0000E+00  0.0000E+00
  -8.500  0.0000E+00  0.0000E+00
  -8.490  0.0000E+00  0.0000E+00
  -8.480  0.0000E+00  0.0000E+00
  -8.470  0.0000E+00  0.0000E+00
  -8.460  0.0000E+00  0.0000E+00
  -8.450  0.0000E+00  0.0000E+00
  -8.440  0.0000E+00  0.0000E+00
  -8.430  0.0000E+00  0.0000E+00
  -8.420  0.0000E+00  0.0000E+00
  -8.410  0.0000E+00  0.0000E+00
  -8.400  0.0000E+00  0.0000E+00
  -8.390  0.0000E+00  0.0000E+00
  -8.380  0.0000E+00  0.0000E+00
  -8.370  0.0000E+00  0.0000E+00
  -8.360  0.0000E+00  0.0000E+00
  -8.350  0.0000E+00  0.0000E+00
  -8.340  0.0000E+00  0.0000E+00
  -8.330  0.0000E+00  0.0000E+00
  -8.320  0.0000E+00  0.0000E+00
  -8.310  0.0000E+00  0.0000E+00
  -8.300  0.0000E+00  0.0000E+00
  -8.290  0.0000E+00  0.0000E+00
  -8.280  0.0000E+00  0.0000E+00
  -8.270  0.0000E+00  0.0000E+00
  -8.260  0.0000E+00  0.0000E+00
  -8.250  0.0000E+00  0.0000E+00
  -8.240  0.0000E+00  0.0000E+00
  -8.230  0.0000E+00  0.0000E+00
  -8.220  0.0000E+00  0.0000E+00
  -8.210  0.0000E+00  0.0000E+00
  -8.200  0.0000E+00  0.0000E+00
  -8.190  0.0000E+00  0.0000E+00
  -8.180  0.0000E+00  0.0000E+00
  -8.170  0.0000E+00  0.0000E+00
  -8.160  0.0000E+00  0.0000E+00
  -8.150  0.0000E+00  0.0000E+00
  -8.140  0.0000E+00  0.0000E+00
  -8.130  0.0000E+00  0.0000E+00
  -8.120  0.0000E+00  0.0000E+00
  -8.110  0.0000E+00  0.0000E+00
  -8.100  0.0000E+00  0.0000E+00
  -8.090  0.0000E+00  0.0000E+00
  -8.080  0.0000E+00  0.0000E+00
  -8.070  0.0000E+00  0.0000E+00
  -8.060  0.0000E+00  0.0000E+00
  -8.050  0.0000E+00  0.0000E+00
  -8.040  0.0000E+00  0.0000E+00
  -8.030  0.0000E+00  0.0000E+00
  -8.020  0.0000E+00  0.0000E+00
  -8.010  0.0000E+00  0.0000E+00
  -8.000  0.0000E+00  0.0000E+00
  -7.990  0.0000E+00  0.0000E+00
  -7.980  0.0000E+00  0.0000E+00
  -7.970  0.0000E+00  0.0000E+00
  -7.960  0.0000E+00  0.0000E+00
  -7.950  0.0000E+00  0.0000E+00
  -7.940  0.0000E+00  0.0000E+00
  -7.930  0.0000E+00  0.0000E+00
  -7.920  0.0000E+00  0.0000E+00
  -7.910  0.0000E+00  0.0000E+00
  -7.900  0.0000E+00  0.0000E+00
  -7.890  0.0000E+00  0.0000E+00
  -7.880  0.0000E+00  0.0000E+00
  -7.870  0.0000E+00  0.0000E+00
  -7.860  0.0000E+00  0.0000E+00
  -7.850  0.0000E+00  0.0000E+00
  -7.840  0.0000E+00  0.0000E+00
  -7.830  0.0000E+00  0.0000E+00
  -7.820  0.0000E+00  0.0000E+00
  -7.810  0.0000E+00  0.0000E+00
  -7.800  0.0000E+00  0.0000E+00
  -7.790  0.0000E+00  0.0000E+00
  -7.780  0.0000E+00  0.0000E+00
  -7.770  0.0000E+00  0.0000E+00
  -7.760  0.0000E+00  0.0000E+00
  -7.750  0.0000E+00  0.0000E+00
  -7.740  0.0000E+00  0.0000E+00
  -7.730  0.0000E+00  0.0000E+00
  -7.720  0.0000E+00  0.0000E+00
  -7.710  0.0000E+00  0.0000E+00
  -7.700  0.0000E+00  0.0000E+00
  -7.690  0.0000E+00  0.0000E+00
  -7.680  0.0000E+00  0.0000E+00
  -7.670  0.0000E+00  0.0000E+00
  -7.660  0.0000E+00  0.0000E+00
  -7.650  0.0000E+00  0.0000E+00
  -7.640  0.0000E+00  0.0000E+00
  -7.630  0.0000E+00  0.0000E+00
  -7.620  0.0000E+00  0.0000E+00
  -7.610  0.0000E+00  0.0000E+00
  -7.600  0.0000E+00  0.0000E+00
  -7.590  0.0000E+00  0.0000E+00
  -7.580  0.0000E+00  0.0000E+00
  -7.570  0.0000E+00  0.0000E+00
  -7.560  0.0000E+00  0.0000E+00
  -7.550  0.0000E+00  0.0000E+00
  -7.540  0.0000E+00  0.0000E+00
  -7.530  0.0000E+00  0.0000E+00
  -7.520  0.0000E+00  0.0000E+00
  -7.510  0.0000E+00  0.0000E+00
  -7.500  0.0000E+00  0.0000E+00
  -7.490  0.0000E+00  0.0000E+00
  -7.480  0.0000E+00  0.0000E+00
  -7.470  0.0000E+00  0.0000E+00
  -7.460  0.0000E+00  0.0000E+00
  -7.450  0.0000E+00  0.0000E+00
  -7.440  0.0000E+00  0.0000E+00
  -7.430  0.0000E+00  0.0000E+00
  -7.420  0.0000E+00  0.0000E+00
  -7.410  0.0000E+00  0.0000E+00
  -7.400  0.0000E+00  0.0000E+00
  -7.390  0.0000E+00  0.0000E+00
  -7.380  0.0000E+00  0.0000E+00
  -7.370  0.0000E+00  0.0000E+00
  -7.360  0.0000E+00  0.0000E+00
  -7.350  0.0000E+00  0.0000E+00
  -7.340  0.0000E+00  0.0000E+00
  -7.330  0.0000E+00  0.0000E+00
  -7.320  0.0000E+00  0.0000E+00
  -7.310  0.0000E+00  0.0000E+00
  -7.300  0.0000E+00  0.0000E+00
  -7.290  0.0000E+00  0.0000E+00
  -7.280  0.0000E+00  0.0000E+00
  -7.270  0.0000E+00  0.0000E+00
  -7.260  0.0000E+00  0.0000E+00
  -7.250  0.0000E+00  0.0000E+00
  -7.240  0.0000E+00  0.0000E+00
  -7.230  0.0000E+00  0.0000E+00
  -7.220  0.0000E+00  0.0000E+00
  -7.210  0.0000E+00  0.0000E+00
  -7.200  0.0000E+00  0.0000E+00
  -7.190  0.0000E+00  0.0000E+00
  -7.180  0.0000E+00  0.0000E+00
  -7.170  0.0000E+00  0.0000E+00
  -7.160  0.0000E+00  0.0000E+00
  -7.150  0.0000E+00  0.0000E+00
  -7.140  0.0000E+00  0.0000E+00
  -7.130  0.0000E+00  0.0000E+00
  -7.120  0.0000E+00  0.0000E+00
  -7.110  0.0000E+00  0.0000E+00
  -7.100  0.0000E+00  0.0000E+00
  -7.090  0.0000E+00  0.0000E+00
  -7.080  0.0000E+00  0.0000E+00
  -7.070  0.0000E+00  0.0000E+00
  -7.060  0.0000E+00  0.0000E+00
  -7.050  0.0000E+00  0.0000E+00
  -7.040  0.0000E+00  0.0000E+00
  -7.030  0.0000E+00  0.0000E+00
  -7.020  0.0000E+00  0.0000E+00
  -7.010  0.0000E+00  0.0000E+00
  -7.000  0.0000E+00  0.0000E+00
  -6.990  0.0000E+00  0.0000E+00
  -6.980  0.0000E+00  0.0000E+00
  -6.970  0.0000E+00  0.0000E+00
  -6.960  0.0000E+00  0.0000E+00
  -6.950  0.0000E+00  0.0000E+00
  -6.940  0.0000E+00  0.0000E+00
  -6.930  0.0000E+00  0.0000E+00
  -6.920  0.0000E+00  0.0000E+00
  -6.910  0.0000E+00  0.0000E+00
  -6.900  0.0000E+00  0.0000E+00
  -6.890  0.0000E+00  0.0000E+00
  -6.880  0.0000E+00  0.0000E+00
  -6.870  0.0000E+00  0.0000E+00
  -6.860  0.0000E+00  0.0000E+00
  -6.850  0.0000E+00  0.0000E+00
  -6.840  0.0000E+00  0.0000E+00
  -6.830  0.0000E+00  0.0000E+00
  -6.820  0.0000E+00  0.0000E+00
  -6.810  0.0000E+00  0.0000E+00
  -6.800  0.0000E+00  0.0000E+00
  -6.790  0.0000E+00  0.0000E+00
  -6.780  0.0000E+00  0.0000E+00
  -6.770  0.0000E+00  0.0000E+00
  -6.760  0.0000E+00  0.0000E+00
  -6.750  0.0000E+00  0.0000E+00
  -6.740  0.0000E+00  0.0000E+00
  -6.730  0.0000E+00  0.0000E+00
  -6.720  0.0000E+00  0.0000E+00
  -6.710  0.0000E+00  0.0000E+00
  -6.700  0.0000E+00  0.0000E+00
  -6.690  0.0000E+00  0.0000E+00
  -6.680  0.0000E+00  0.0000E+00
  -6.670  0.0000E+00  0.0000E+00
  -6.660  0.0000E+00  0.0000E+00
  -6.650  0.0000E+00  0.0000E+00
  -6.640  0.0000E+00  0.0000E+00
  -6.630  0.0000E+00  0.0000E+00
  -6.620  0.0000E+00  0.0000E+00
  -6.610  0.0000E+00  0.0000E+00
  -6.600  0.0000E+00  0.0000E+00
  -6.590  0.0000E+00  0.0000E+00
  -6.580  0.0000E+00  0.0000E+00
  -6.570  0.0000E+00  0.0000E+00
  -6.560  0.0000E+00  0.0000E+00
  -6.550  0.0000E+00  0.0000E+00
  -6.540  0.0000E+00  0.0000E+00
  -6.530  0.0000E+00  0.0000E+00
  -6.520  0.0000E+00  0.0000E+00
  -6.510  0.0000E+00  0.0000E+00
  -6.500  0.0000E+00  0.0000E+00
  -6.490  0.0000E+00  0.0000E+00
  -6.480  0.0000E+00  0.0000E+00
  -6.470  0.0000E+00  0.0000E+00
  -6.460  0.0000E+00  0.0000E+00
  -6.450  0.0000E+00  0.0000E+00
  -6.440  0.0000E+00  0.0000E+00
  -6.430  0.0000E+00  0.0000E+00
  -6.420  0.0000E+00  0.0000E+00
  -6.410  0.0000E+00  0.0000E+00
  -6.400  0.0000E+00  0.0000E+00
  -6.390  0.0000E+00  0.0000E+00
  -6.380  0.0000E+00  0.0000E+00
  -6.370  0.0000E+00  0.0000E+00
  -6.360  0.0000E+00  0.0000E+00
  -6.350  0.0000E+00  0.0000E+00
  -6.340  0.0000E+00  0.0000E+00
  -6.330  0.0000E+00  0.0000E+00
  -6.320  0.0000E+00  0.0000E+00
  -6.310  0.0000E+00  0.0000E+00
  -6.300  0.0000E+00  0.0000E+00
  -6.290  0.0000E+00  0.0000E+00
  -6.280  0.0000E+00  0.0000E+00
  -6.270  0.0000E+00  0.0000E+00
  -6.260  0.0000E+00  0.0000E+00
  -6.250  0.0000E+00  0.0000E+00
  -6.240  0.0000E+00  0.0000E+00
  -6.230  0.0000E+00  0.0000E+00
  -6.220  0.0000E+00  0.0000E+00
  -6.210  0.0000E+00  0.0000E+00
  -6.200  0.0000E+00  0.0000E+00
  -6.190  0.0000E+00  0.0000E+00
  -6.180  0.0000E+00  0.0000E+00
  -6.170  0.0000E+00  0.0000E+00
  -6.160  0.0000E+00  0.0000E+00
  -6.150  0.0000E+00  0.0000E+00
  -6.140  0.0000E+00  0.0000E+00
  -6.130  0.0000E+00  0.0000E+00
  -6.120  0.0000E+00  0.0000E+00
  -6.110  0.0000E+00  0.0000E+00
  -6.100  0.0000E+00  0.0000E+00
  -6.090  0.0000E+00  0.0000E+00
  -6.080  0.0000E+00  0.0000E+00
  -6.070  0.0000E+00  0.0000E+00
  -6.060  0.0000E+00  0.0000E+00
  -6.050  0.0000E+00  0.0000E+00
  -6.040  0.0000E+00  0.0000E+00
  -6.030  0.0000E+00  0.0000E+00
  -6.020  0.0000E+00  0.0000E+00
  -6.010  0.0000E+00  0.0000E+00
  -6.000  0.0000E+00  0.0000E+00
  -5.990  0.0000E+00  0.0000E+00
  -5.980  0.0000E+00  0.0000E+00
  -5.970  0.0000E+00  0.0000E+00
  -5.960  0.0000E+00  0.0000E+00
  -5.950  0.0000E+00  0.0000E+00
  -5.940  0.0000E+00  0.0000E+00
  -5.930  0.0000E+00  0.0000E+00
  -5.920  0.0000E+00  0.0000E+00
  -5.910  0.0000E+00  0.0000E+00
  -5.900  0.5112E-03  0.1503E-05
  -5.890  0.2328E-02  0.1460E-04
  -5.880  0.5459E-02  0.5244E-04
  -5.870  0.9904E-02  0.1282E-03
  -5.860  0.1566E-01  0.2549E-03
  -5.850  0.2274E-01  0.4458E-03
  -5.840  0.3113E-01  0.7141E-03
  -5.830  0.4083E-01  0.1073E-02
  -5.820  0.6310E-01  0.1542E-02
  -5.810  0.1340E+00  0.2584E-02
  -5.800  0.1370E+00  0.3996E-02
  -5.790  0.8960E-01  0.5113E-02
  -5.780  0.9479E-01  0.6035E-02
  -5.770  0.1001E+00  0.7009E-02
  -5.760  0.1055E+00  0.8037E-02
  -5.750  0.1110E+00  0.9119E-02
  -5.740  0.1167E+00  0.1026E-01
  -5.730  0.1224E+00  0.1145E-01
  -5.720  0.1283E+00  0.1271E-01
  -5.710  0.1343E+00  0.1402E-01
  -5.700  0.1403E+00  0.1539E-01
  -5.690  0.1465E+00  0.1683E-01
  -5.680  0.1529E+00  0.1832E-01
  -5.670  0.1615E+00  0.1989E-01
  -5.660  0.1708E+00  0.2155E-01
  -5.650  0.1790E+00  0.2330E-01
  -5.640  0.1860E+00  0.2513E-01
  -5.630  0.1920E+00  0.2702E-01
  -5.620  0.1969E+00  0.2896E-01
  -5.610  0.2006E+00  0.3095E-01
  -5.600  0.2032E+00  0.3297E-01
  -5.590  0.2048E+00  0.3501E-01
  -5.580  0.1971E+00  0.3703E-01
  -5.570  0.1931E+00  0.3897E-01
  -5.560  0.1942E+00  0.4090E-01
  -5.550  0.1975E+00  0.4286E-01
  -5.540  0.2009E+00  0.4485E-01
  -5.530  0.2044E+00  0.4688E-01
  -5.520  0.2080E+00  0.4894E-01
  -5.510  0.2117E+00  0.5104E-01
  -5.500  0.2155E+00  0.5318E-01
  -5.490  0.2194E+00  0.5535E-01
  -5.480  0.2234E+00  0.5756E-01
  -5.470  0.2275E+00  0.5982E-01
  -5.460  0.2317E+00  0.6211E-01
  -5.450  0.2360E+00  0.6445E-01
  -5.440  0.2404E+00  0.6683E-01
  -5.430  0.2448E+00  0.6926E-01
  -5.420  0.2493E+00  0.7173E-01
  -5.410  0.2537E+00  0.7424E-01
  -5.400  0.2582E+00  0.7680E-01
  -5.390  0.2627E+00  0.7941E-01
  -5.380  0.2672E+00  0.8206E-01
  -5.370  0.2717E+00  0.8475E-01
  -5.360  0.2761E+00  0.8749E-01
  -5.350  0.2790E+00  0.9027E-01
  -5.340  0.2806E+00  0.9307E-01
  -5.330  0.2806E+00  0.9587E-01
  -5.320  0.2830E+00  0.9869E-01
  -5.310  0.2853E+00  0.1015E+00
  -5.300  0.2875E+00  0.1044E+00
  -5.290  0.2897E+00  0.1073E+00
  -5.280  0.2918E+00  0.1102E+00
  -5.270  0.2939E+00  0.1131E+00
  -5.260  0.2958E+00  0.1161E+00
  -5.250  0.2978E+00  0.1190E+00
  -5.240  0.2997E+00  0.1220E+00
  -5.230  0.3015E+00  0.1250E+00
  -5.220  0.3032E+00  0.1281E+00
  -5.210  0.3040E+00  0.1311E+00
  -5.200  0.3050E+00  0.1341E+00
  -5.190  0.3064E+00  0.1372E+00
  -5.180  0.3080E+00  0.1403E+00
  -5.170  0.3099E+00  0.1434E+00
  -5.160  0.3122E+00  0.1465E+00
  -5.150  0.3148E+00  0.1496E+00
  -5.140  0.3176E+00  0.1528E+00
  -5.130  0.3207E+00  0.1560E+00
  -5.120  0.3241E+00  0.1592E+00
  -5.110  0.3276E+00  0.1624E+00
  -5.100  0.3311E+00  0.1657E+00
  -5.090  0.3346E+00  0.1691E+00
  -5.080  0.3381E+00  0.1724E+00
  -5.070  0.3417E+00  0.1758E+00
  -5.060  0.3453E+00  0.1793E+00
  -5.050  0.3489E+00  0.1827E+00
  -5.040  0.3525E+00  0.1862E+00
  -5.030  0.3561E+00  0.1898E+00
  -5.020  0.3598E+00  0.1934E+00
  -5.010  0.3635E+00  0.1970E+00
  -5.000  0.3672E+00  0.2006E+00
  -4.990  0.3709E+00  0.2043E+00
  -4.980  0.3742E+00  0.2080E+00
  -4.970  0.3770E+00  0.2118E+00
  -4.960  0.3794E+00  0.2156E+00
  -4.950  0.3814E+00  0.2194E+00
  -4.940  0.3829E+00  0.2232E+00
  -4.930  0.3840E+00  0.2270E+00
  -4.920  0.3846E+00  0.2309E+00
  -4.910  0.3848E+00  0.2347E+00
  -4.900  0.3853E+00  0.2386E+00
  -4.890  0.3888E+00  0.2424E+00
  -4.880  0.3909E+00  0.2463E+00
  -4.870  0.3930E+00  0.2503E+00
  -4.860  0.3952E+00  0.2542E+00
  -4.850  0.3973E+00  0.2582E+00
  -4.840  0.3995E+00  0.2622E+00
  -4.830  0.4017E+00  0.2662E+00
  -4.820  0.4038E+00  0.2702E+00
  -4.810  0.4060E+00  0.2742E+00
  -4.800  0.4082E+00  0.2783E+00
  -4.790  0.4105E+00  0.2824E+00
  -4.780  0.4127E+00  0.2865E+00
  -4.770  0.4149E+00  0.2907E+00
  -4.760  0.4172E+00  0.2948E+00
  -4.750  0.4193E+00  0.2990E+00
  -4.740  0.4215E+00  0.3032E+00
  -4.730  0.4236E+00  0.3074E+00
  -4.720  0.4257E+00  0.3117E+00
  -4.710  0.4278E+00  0.3159E+00
  -4.700  0.4297E+00  0.3202E+00
  -4.690  0.4317E+00  0.3245E+00
  -4.680  0.4338E+00  0.3289E+00
  -4.670  0.4362E+00  0.3332E+00
  -4.660  0.4389E+00  0.3376E+00
  -4.650  0.4417E+00  0.3420E+00
  -4.640  0.4446E+00  0.3464E+00
  -4.630  0.4476E+00  0.3509E+00
  -4.620  0.4507E+00  0.3554E+00
  -4.610  0.4538E+00  0.3599E+00
  -4.600  0.4570E+00  0.3645E+00
  -4.590  0.4603E+00  0.3690E+00
  -4.580  0.4636E+00  0.3737E+00
  -4.570  0.4670E+00  0.3783E+00
  -4.560  0.4704E+00  0.3830E+00
  -4.550  0.4739E+00  0.3877E+00
  -4.540  0.4773E+00  0.3925E+00
  -4.530  0.4809E+00  0.3973E+00
  -4.520  0.4844E+00  0.4021E+00
  -4.510  0.4880E+00  0.4070E+00
  -4.500  0.4916E+00  0.4119E+00
  -4.490  0.4953E+00  0.4168E+00
  -4.480  0.4984E+00  0.4218E+00
  -4.470  0.5007E+00  0.4268E+00
  -4.460  0.5025E+00  0.4318E+00
  -4.450  0.5040E+00  0.4368E+00
  -4.440  0.5062E+00  0.4419E+00
  -4.430  0.5084E+00  0.4469E+00
  -4.420  0.5105E+00  0.4520E+00
  -4.410  0.5126E+00  0.4571E+00
  -4.400  0.5146E+00  0.4623E+00
  -4.390  0.5166E+00  0.4674E+00
  -4.380  0.5185E+00  0.4726E+00
  -4.370  0.5203E+00  0.4778E+00
  -4.360  0.5221E+00  0.4830E+00
  -4.350  0.5243E+00  0.4882E+00
  -4.340  0.5269E+00  0.4935E+00
  -4.330  0.5299E+00  0.4988E+00
  -4.320  0.5333E+00  0.5041E+00
  -4.310  0.5370E+00  0.5094E+00
  -4.300  0.5400E+00  0.5148E+00
  -4.290  0.5431E+00  0.5203E+00
  -4.280  0.5461E+00  0.5257E+00
  -4.270  0.5493E+00  0.5312E+00
  -4.260  0.5525E+00  0.5367E+00
  -4.250  0.5557E+00  0.5422E+00
  -4.240  0.5589E+00  0.5478E+00
  -4.230  0.5622E+00  0.5534E+00
  -4.220  0.5655E+00  0.5590E+00
  -4.210  0.5688E+00  0.5647E+00
  -4.200  0.5721E+00  0.5704E+00
  -4.190  0.5754E+00  0.5762E+00
  -4.180  0.5788E+00  0.5819E+00
  -4.170  0.5822E+00  0.5877E+00
  -4.160  0.5856E+00  0.5936E+00
  -4.150  0.5890E+00  0.5994E+00
  -4.140  0.5925E+00  0.6053E+00
  -4.130  0.5959E+00  0.6113E+00
  -4.120  0.5994E+00  0.6173E+00
  -4.110  0.6029E+00  0.6233E+00
  -4.100  0.6063E+00  0.6293E+00
  -4.090  0.6100E+00  0.6354E+00
  -4.080  0.6141E+00  0.6415E+00
  -4.070  0.6184E+00  0.6477E+00
  -4.060  0.6229E+00  0.6539E+00
  -4.050  0.6275E+00  0.6601E+00
  -4.040  0.6322E+00  0.6664E+00
  -4.030  0.6371E+00  0.6728E+00
  -4.020  0.6421E+00  0.6792E+00
  -4.010  0.6473E+00  0.6856E+00
  -4.000  0.6526E+00  0.6921E+00
  -3.990  0.6580E+00  0.6987E+00
  -3.980  0.6636E+00  0.7053E+00
  -3.970  0.6693E+00  0.7120E+00
  -3.960  0.6752E+00  0.7187E+00
  -3.950  0.6812E+00  0.7255E+00
  -3.940  0.6873E+00  0.7323E+00
  -3.930  0.6935E+00  0.7392E+00
  -3.920  0.6997E+00  0.7462E+00
  -3.910  0.7060E+00  0.7532E+00
  -3.900  0.7123E+00  0.7603E+00
  -3.890  0.7186E+00  0.7674E+00
  -3.880  0.7248E+00  0.7747E+00
  -3.870  0.7310E+00  0.7819E+00
  -3.860  0.7381E+00  0.7893E+00
  -3.850  0.7453E+00  0.7967E+00
  -3.840  0.7527E+00  0.8042E+00
  -3.830  0.7603E+00  0.8118E+00
  -3.820  0.7681E+00  0.8194E+00
  -3.810  0.7760E+00  0.8271E+00
  -3.800  0.7841E+00  0.8349E+00
  -3.790  0.7924E+00  0.8428E+00
  -3.780  0.8008E+00  0.8508E+00
  -3.770  0.8094E+00  0.8588E+00
  -3.760  0.8742E+00  0.8671E+00
  -3.750  0.8921E+00  0.8760E+00
  -3.740  0.9079E+00  0.8850E+00
  -3.730  0.9218E+00  0.8941E+00
  -3.720  0.9338E+00  0.9034E+00
  -3.710  0.9440E+00  0.9128E+00
  -3.700  0.9522E+00  0.9223E+00
  -3.690  0.9586E+00  0.9318E+00
  -3.680  0.9624E+00  0.9414E+00
  -3.670  0.9594E+00  0.9511E+00
  -3.660  0.9490E+00  0.9606E+00
  -3.650  0.9309E+00  0.9700E+00
  -3.640  0.9221E+00  0.9792E+00
  -3.630  0.9194E+00  0.9885E+00
  -3.620  0.9168E+00  0.9976E+00
  -3.610  0.9143E+00  0.1007E+01
  -3.600  0.9119E+00  0.1016E+01
  -3.590  0.9096E+00  0.1025E+01
  -3.580  0.9073E+00  0.1034E+01
  -3.570  0.9051E+00  0.1043E+01
  -3.560  0.9031E+00  0.1052E+01
  -3.550  0.9011E+00  0.1061E+01
  -3.540  0.8992E+00  0.1070E+01
  -3.530  0.8974E+00  0.1079E+01
  -3.520  0.8957E+00  0.1088E+01
  -3.510  0.8939E+00  0.1097E+01
  -3.500  0.8919E+00  0.1106E+01
  -3.490  0.8899E+00  0.1115E+01
  -3.480  0.8877E+00  0.1124E+01
  -3.470  0.8854E+00  0.1133E+01
  -3.460  0.8830E+00  0.1142E+01
  -3.450  0.8792E+00  0.1150E+01
  -3.440  0.8697E+00  0.1159E+01
  -3.430  0.8635E+00  0.1168E+01
  -3.420  0.8608E+00  0.1176E+01
  -3.410  0.8599E+00  0.1185E+01
  -3.400  0.8587E+00  0.1194E+01
  -3.390  0.8570E+00  0.1202E+01
  -3.380  0.8550E+00  0.1211E+01
  -3.370  0.8525E+00  0.1219E+01
  -3.360  0.8496E+00  0.1228E+01
  -3.350  0.8467E+00  0.1236E+01
  -3.340  0.8463E+00  0.1245E+01
  -3.330  0.8484E+00  0.1253E+01
  -3.320  0.8530E+00  0.1262E+01
  -3.310  0.8570E+00  0.1270E+01
  -3.300  0.8515E+00  0.1279E+01
  -3.290  0.8449E+00  0.1287E+01
  -3.280  0.8375E+00  0.1296E+01
  -3.270  0.8304E+00  0.1304E+01
  -3.260  0.8237E+00  0.1312E+01
  -3.250  0.8172E+00  0.1321E+01
  -3.240  0.8112E+00  0.1329E+01
  -3.230  0.8055E+00  0.1337E+01
  -3.220  0.8001E+00  0.1345E+01
  -3.210  0.7951E+00  0.1353E+01
  -3.200  0.7904E+00  0.1361E+01
  -3.190  0.7860E+00  0.1369E+01
  -3.180  0.7814E+00  0.1376E+01
  -3.170  0.7761E+00  0.1384E+01
  -3.160  0.7710E+00  0.1392E+01
  -3.150  0.7660E+00  0.1400E+01
  -3.140  0.7612E+00  0.1407E+01
  -3.130  0.7565E+00  0.1415E+01
  -3.120  0.7520E+00  0.1422E+01
  -3.110  0.7475E+00  0.1430E+01
  -3.100  0.7432E+00  0.1437E+01
  -3.090  0.7390E+00  0.1445E+01
  -3.080  0.7350E+00  0.1452E+01
  -3.070  0.7312E+00  0.1459E+01
  -3.060  0.7275E+00  0.1467E+01
  -3.050  0.7240E+00  0.1474E+01
  -3.040  0.7207E+00  0.1481E+01
  -3.030  0.7175E+00  0.1488E+01
  -3.020  0.7146E+00  0.1496E+01
  -3.010  0.7118E+00  0.1503E+01
  -3.000  0.7092E+00  0.1510E+01
  -2.990  0.7066E+00  0.1517E+01
  -2.980  0.7040E+00  0.1524E+01
  -2.970  0.7014E+00  0.1531E+01
  -2.960  0.6987E+00  0.1538E+01
  -2.950  0.6959E+00  0.1545E+01
  -2.940  0.6931E+00  0.1552E+01
  -2.930  0.6902E+00  0.1559E+01
  -2.920  0.6873E+00  0.1566E+01
  -2.910  0.6843E+00  0.1573E+01
  -2.900  0.6813E+00  0.1579E+01
  -2.890  0.6782E+00  0.1586E+01
  -2.880  0.6750E+00  0.1593E+01
  -2.870  0.6719E+00  0.1600E+01
  -2.860  0.6686E+00  0.1606E+01
  -2.850  0.6653E+00  0.1613E+01
  -2.840  0.6622E+00  0.1620E+01
  -2.830  0.6625E+00  0.1626E+01
  -2.820  0.6670E+00  0.1633E+01
  -2.810  0.6757E+00  0.1640E+01
  -2.800  0.6884E+00  0.1646E+01
  -2.790  0.7050E+00  0.1653E+01
  -2.780  0.6896E+00  0.1661E+01
  -2.770  0.6383E+00  0.1667E+01
  -2.760  0.6357E+00  0.1673E+01
  -2.750  0.6332E+00  0.1680E+01
  -2.740  0.6306E+00  0.1686E+01
  -2.730  0.6279E+00  0.1692E+01
  -2.720  0.6253E+00  0.1699E+01
  -2.710  0.6226E+00  0.1705E+01
  -2.700  0.6199E+00  0.1711E+01
  -2.690  0.6172E+00  0.1717E+01
  -2.680  0.6144E+00  0.1723E+01
  -2.670  0.6116E+00  0.1730E+01
  -2.660  0.6088E+00  0.1736E+01
  -2.650  0.6059E+00  0.1742E+01
  -2.640  0.6031E+00  0.1748E+01
  -2.630  0.6002E+00  0.1754E+01
  -2.620  0.5973E+00  0.1760E+01
  -2.610  0.5943E+00  0.1766E+01
  -2.600  0.5913E+00  0.1772E+01
  -2.590  0.5883E+00  0.1778E+01
  -2.580  0.5853E+00  0.1783E+01
  -2.570  0.5823E+00  0.1789E+01
  -2.560  0.5792E+00  0.1795E+01
  -2.550  0.5761E+00  0.1801E+01
  -2.540  0.5729E+00  0.1807E+01
  -2.530  0.5710E+00  0.1812E+01
  -2.520  0.5700E+00  0.1818E+01
  -2.510  0.5688E+00  0.1824E+01
  -2.500  0.5673E+00  0.1829E+01
  -2.490  0.5651E+00  0.1835E+01
  -2.480  0.5625E+00  0.1841E+01
  -2.470  0.5595E+00  0.1846E+01
  -2.460  0.5562E+00  0.1852E+01
  -2.450  0.5526E+00  0.1857E+01
  -2.440  0.5488E+00  0.1863E+01
  -2.430  0.5446E+00  0.1868E+01
  -2.420  0.5401E+00  0.1874E+01
  -2.410  0.5351E+00  0.1879E+01
  -2.400  0.5280E+00  0.1884E+01
  -2.390  0.5198E+00  0.1890E+01
  -2.380  0.5105E+00  0.1895E+01
  -2.370  0.5002E+00  0.1900E+01
  -2.360  0.4888E+00  0.1905E+01
  -2.350  0.4763E+00  0.1910E+01
  -2.340  0.4628E+00  0.1914E+01
  -2.330  0.4481E+00  0.1919E+01
  -2.320  0.4325E+00  0.1923E+01
  -2.310  0.4143E+00  0.1928E+01
  -2.300  0.3952E+00  0.1932E+01
  -2.290  0.3768E+00  0.1935E+01
  -2.280  0.3593E+00  0.1939E+01
  -2.270  0.3437E+00  0.1943E+01
  -2.260  0.3308E+00  0.1946E+01
  -2.250  0.3182E+00  0.1949E+01
  -2.240  0.3058E+00  0.1952E+01
  -2.230  0.2936E+00  0.1955E+01
  -2.220  0.2815E+00  0.1958E+01
  -2.210  0.2697E+00  0.1961E+01
  -2.200  0.2581E+00  0.1964E+01
  -2.190  0.2467E+00  0.1966E+01
  -2.180  0.2355E+00  0.1969E+01
  -2.170  0.2245E+00  0.1971E+01
  -2.160  0.2137E+00  0.1973E+01
  -2.150  0.2032E+00  0.1975E+01
  -2.140  0.1928E+00  0.1977E+01
  -2.130  0.1826E+00  0.1979E+01
  -2.120  0.1727E+00  0.1981E+01
  -2.110  0.1629E+00  0.1983E+01
  -2.100  0.1534E+00  0.1984E+01
  -2.090  0.1440E+00  0.1986E+01
  -2.080  0.1349E+00  0.1987E+01
  -2.070  0.1259E+00  0.1988E+01
  -2.060  0.1172E+00  0.1989E+01
  -2.050  0.1088E+00  0.1991E+01
  -2.040  0.1007E+00  0.1992E+01
  -2.030  0.9288E-01  0.1993E+01
  -2.020  0.8535E-01  0.1994E+01
  -2.010  0.7810E-01  0.1994E+01
  -2.000  0.7116E-01  0.1995E+01
  -1.990  0.6450E-01  0.1996E+01
  -1.980  0.5814E-01  0.1996E+01
  -1.970  0.5207E-01  0.1997E+01
  -1.960  0.4630E-01  0.1997E+01
  -1.950  0.4082E-01  0.1998E+01
  -1.940  0.3563E-01  0.1998E+01
  -1.930  0.3074E-01  0.1999E+01
  -1.920  0.2613E-01  0.1999E+01
  -1.910  0.2197E-01  0.1999E+01
  -1.900  0.1839E-01  0.1999E+01
  -1.890  0.1538E-01  0.1999E+01
  -1.880  0.1354E-01  0.2000E+01
  -1.870  0.1251E-01  0.2000E+01
  -1.860  0.1188E-01  0.2000E+01
  -1.850  0.1164E-01  0.2000E+01
  -1.840  0.1180E-01  0.2000E+01
  -1.830  0.1234E-01  0.2000E+01
  -1.820  0.1328E-01  0.2000E+01
  -1.810  0.1462E-01  0.2000E+01
  -1.800  0.1653E-01  0.2001E+01
  -1.790  0.1906E-01  0.2001E+01
  -1.780  0.2221E-01  0.2001E+01
  -1.770  0.2595E-01  0.2001E+01
  -1.760  0.3002E-01  0.2002E+01
  -1.750  0.3439E-01  0.2002E+01
  -1.740  0.3905E-01  0.2002E+01
  -1.730  0.4401E-01  0.2003E+01
  -1.720  0.4927E-01  0.2003E+01
  -1.710  0.5482E-01  0.2004E+01
  -1.700  0.6067E-01  0.2004E+01
  -1.690  0.6682E-01  0.2005E+01
  -1.680  0.7326E-01  0.2006E+01
  -1.670  0.8000E-01  0.2006E+01
  -1.660  0.8702E-01  0.2007E+01
  -1.650  0.9422E-01  0.2008E+01
  -1.640  0.1016E+00  0.2009E+01
  -1.630  0.1091E+00  0.2010E+01
  -1.620  0.1168E+00  0.2011E+01
  -1.610  0.1246E+00  0.2012E+01
  -1.600  0.1326E+00  0.2014E+01
  -1.590  0.1407E+00  0.2015E+01
  -1.580  0.1490E+00  0.2017E+01
  -1.570  0.1575E+00  0.2018E+01
  -1.560  0.1661E+00  0.2020E+01
  -1.550  0.1749E+00  0.2021E+01
  -1.540  0.1839E+00  0.2023E+01
  -1.530  0.1929E+00  0.2025E+01
  -1.520  0.2022E+00  0.2027E+01
  -1.510  0.2116E+00  0.2029E+01
  -1.500  0.2212E+00  0.2031E+01
  -1.490  0.2309E+00  0.2034E+01
  -1.480  0.2408E+00  0.2036E+01
  -1.470  0.2509E+00  0.2038E+01
  -1.460  0.2611E+00  0.2041E+01
  -1.450  0.2714E+00  0.2044E+01
  -1.440  0.2819E+00  0.2046E+01
  -1.430  0.2926E+00  0.2049E+01
  -1.420  0.3035E+00  0.2052E+01
  -1.410  0.3144E+00  0.2055E+01
  -1.400  0.3256E+00  0.2058E+01
  -1.390  0.3369E+00  0.2062E+01
  -1.380  0.3484E+00  0.2065E+01
  -1.370  0.3637E+00  0.2069E+01
  -1.360  0.3807E+00  0.2072E+01
  -1.350  0.3977E+00  0.2076E+01
  -1.340  0.4144E+00  0.2080E+01
  -1.330  0.4311E+00  0.2085E+01
  -1.320  0.4476E+00  0.2089E+01
  -1.310  0.4639E+00  0.2094E+01
  -1.300  0.4801E+00  0.2098E+01
  -1.290  0.4961E+00  0.2103E+01
  -1.280  0.5118E+00  0.2108E+01
  -1.270  0.5226E+00  0.2113E+01
  -1.260  0.5315E+00  0.2119E+01
  -1.250  0.5402E+00  0.2124E+01
  -1.240  0.5486E+00  0.2130E+01
  -1.230  0.5566E+00  0.2135E+01
  -1.220  0.5644E+00  0.2141E+01
  -1.210  0.5719E+00  0.2146E+01
  -1.200  0.5791E+00  0.2152E+01
  -1.190  0.5860E+00  0.2158E+01
  -1.180  0.5927E+00  0.2164E+01
  -1.170  0.5981E+00  0.2170E+01
  -1.160  0.6039E+00  0.2176E+01
  -1.150  0.6098E+00  0.2182E+01
  -1.140  0.6159E+00  0.2188E+01
  -1.130  0.6223E+00  0.2194E+01
  -1.120  0.6289E+00  0.2200E+01
  -1.110  0.6358E+00  0.2207E+01
  -1.100  0.6428E+00  0.2213E+01
  -1.090  0.6501E+00  0.2220E+01
  -1.080  0.6576E+00  0.2226E+01
  -1.070  0.6654E+00  0.2233E+01
  -1.060  0.6733E+00  0.2239E+01
  -1.050  0.6811E+00  0.2246E+01
  -1.040  0.6889E+00  0.2253E+01
  -1.030  0.6968E+00  0.2260E+01
  -1.020  0.7048E+00  0.2267E+01
  -1.010  0.7129E+00  0.2274E+01
  -1.000  0.7232E+00  0.2281E+01
  -0.990  0.7366E+00  0.2289E+01
  -0.980  0.7530E+00  0.2296E+01
  -0.970  0.7726E+00  0.2304E+01
  -0.960  0.7954E+00  0.2311E+01
  -0.950  0.8305E+00  0.2320E+01
  -0.940  0.8832E+00  0.2328E+01
  -0.930  0.9683E+00  0.2337E+01
  -0.920  0.1475E+01  0.2348E+01
  -0.910  0.1281E+01  0.2361E+01
  -0.900  0.1362E+01  0.2374E+01
  -0.890  0.1385E+01  0.2388E+01
  -0.880  0.1404E+01  0.2402E+01
  -0.870  0.1420E+01  0.2416E+01
  -0.860  0.1432E+01  0.2430E+01
  -0.850  0.1440E+01  0.2444E+01
  -0.840  0.1444E+01  0.2459E+01
  -0.830  0.1447E+01  0.2473E+01
  -0.820  0.1456E+01  0.2488E+01
  -0.810  0.1465E+01  0.2502E+01
  -0.800  0.1469E+01  0.2517E+01
  -0.790  0.1467E+01  0.2532E+01
  -0.780  0.1460E+01  0.2546E+01
  -0.770  0.1447E+01  0.2561E+01
  -0.760  0.1430E+01  0.2575E+01
  -0.750  0.1407E+01  0.2589E+01
  -0.740  0.1386E+01  0.2603E+01
  -0.730  0.1365E+01  0.2617E+01
  -0.720  0.1342E+01  0.2631E+01
  -0.710  0.1318E+01  0.2644E+01
  -0.700  0.1293E+01  0.2657E+01
  -0.690  0.1266E+01  0.2670E+01
  -0.680  0.1239E+01  0.2682E+01
  -0.670  0.1211E+01  0.2695E+01
  -0.660  0.1183E+01  0.2707E+01
  -0.650  0.1155E+01  0.2718E+01
  -0.640  0.1124E+01  0.2730E+01
  -0.630  0.1093E+01  0.2741E+01
  -0.620  0.1065E+01  0.2752E+01
  -0.610  0.1038E+01  0.2762E+01
  -0.600  0.1012E+01  0.2772E+01
  -0.590  0.9882E+00  0.2782E+01
  -0.580  0.9659E+00  0.2792E+01
  -0.570  0.9452E+00  0.2802E+01
  -0.560  0.9262E+00  0.2811E+01
  -0.550  0.9089E+00  0.2820E+01
  -0.540  0.8927E+00  0.2829E+01
  -0.530  0.8775E+00  0.2838E+01
  -0.520  0.8632E+00  0.2847E+01
  -0.510  0.8497E+00  0.2855E+01
  -0.500  0.8370E+00  0.2864E+01
  -0.490  0.8248E+00  0.2872E+01
  -0.480  0.8132E+00  0.2880E+01
  -0.470  0.8022E+00  0.2888E+01
  -0.460  0.7917E+00  0.2896E+01
  -0.450  0.7819E+00  0.2904E+01
  -0.440  0.7723E+00  0.2912E+01
  -0.430  0.7629E+00  0.2920E+01
  -0.420  0.7543E+00  0.2927E+01
  -0.410  0.7459E+00  0.2935E+01
  -0.400  0.7377E+00  0.2942E+01
  -0.390  0.7296E+00  0.2949E+01
  -0.380  0.7217E+00  0.2957E+01
  -0.370  0.7140E+00  0.2964E+01
  -0.360  0.7064E+00  0.2971E+01
  -0.350  0.6989E+00  0.2978E+01
  -0.340  0.6916E+00  0.2985E+01
  -0.330  0.6844E+00  0.2992E+01
  -0.320  0.6773E+00  0.2999E+01
  -0.310  0.6703E+00  0.3005E+01
  -0.300  0.6635E+00  0.3012E+01
  -0.290  0.6568E+00  0.3019E+01
  -0.280  0.6502E+00  0.3025E+01
  -0.270  0.6438E+00  0.3032E+01
  -0.260  0.6375E+00  0.3038E+01
  -0.250  0.6313E+00  0.3044E+01
  -0.240  0.6253E+00  0.3051E+01
  -0.230  0.6193E+00  0.3057E+01
  -0.220  0.6136E+00  0.3063E+01
  -0.210  0.6079E+00  0.3069E+01
  -0.200  0.6024E+00  0.3075E+01
  -0.190  0.5970E+00  0.3081E+01
  -0.180  0.5913E+00  0.3087E+01
  -0.170  0.5860E+00  0.3093E+01
  -0.160  0.5811E+00  0.3099E+01
  -0.150  0.5768E+00  0.3105E+01
  -0.140  0.5726E+00  0.3110E+01
  -0.130  0.5684E+00  0.3116E+01
  -0.120  0.5643E+00  0.3122E+01
  -0.110  0.5602E+00  0.3127E+01
  -0.100  0.5562E+00  0.3133E+01
  -0.090  0.5522E+00  0.3138E+01
  -0.080  0.5483E+00  0.3144E+01
  -0.070  0.5443E+00  0.3149E+01
  -0.060  0.5404E+00  0.3155E+01
  -0.050  0.5366E+00  0.3160E+01
  -0.040  0.5328E+00  0.3166E+01
  -0.030  0.5290E+00  0.3171E+01
  -0.020  0.5252E+00  0.3176E+01
  -0.010  0.5215E+00  0.3181E+01
   0.000  0.5178E+00  0.3187E+01
   0.010  0.5141E+00  0.3192E+01
   0.020  0.5105E+00  0.3197E+01
   0.030  0.5069E+00  0.3202E+01
   0.040  0.5033E+00  0.3207E+01
   0.050  0.4997E+00  0.3212E+01
   0.060  0.4962E+00  0.3217E+01
   0.070  0.4927E+00  0.3222E+01
   0.080  0.4893E+00  0.3227E+01
   0.090  0.4859E+00  0.3232E+01
   0.100  0.4825E+00  0.3237E+01
   0.110  0.4791E+00  0.3241E+01
   0.120  0.4758E+00  0.3246E+01
   0.130  0.4725E+00  0.3251E+01
   0.140  0.4692E+00  0.3256E+01
   0.150  0.4660E+00  0.3260E+01
   0.160  0.4628E+00  0.3265E+01
   0.170  0.4596E+00  0.3270E+01
   0.180  0.4565E+00  0.3274E+01
   0.190  0.4561E+00  0.3279E+01
   0.200  0.4531E+00  0.3283E+01
   0.210  0.4505E+00  0.3288E+01
   0.220  0.4478E+00  0.3292E+01
   0.230  0.4451E+00  0.3297E+01
   0.240  0.4425E+00  0.3301E+01
   0.250  0.4398E+00  0.3306E+01
   0.260  0.4371E+00  0.3310E+01
   0.270  0.4344E+00  0.3314E+01
   0.280  0.4317E+00  0.3319E+01
   0.290  0.4289E+00  0.3323E+01
   0.300  0.4262E+00  0.3327E+01
   0.310  0.4235E+00  0.3331E+01
   0.320  0.4207E+00  0.3336E+01
   0.330  0.4180E+00  0.3340E+01
   0.340  0.4152E+00  0.3344E+01
   0.350  0.4124E+00  0.3348E+01
   0.360  0.4096E+00  0.3352E+01
   0.370  0.4069E+00  0.3356E+01
   0.380  0.4042E+00  0.3360E+01
   0.390  0.4015E+00  0.3364E+01
   0.400  0.3988E+00  0.3368E+01
   0.410  0.3962E+00  0.3372E+01
   0.420  0.3936E+00  0.3376E+01
   0.430  0.3911E+00  0.3380E+01
   0.440  0.3885E+00  0.3384E+01
   0.450  0.3860E+00  0.3388E+01
   0.460  0.3835E+00  0.3392E+01
   0.470  0.3810E+00  0.3396E+01
   0.480  0.3786E+00  0.3400E+01
   0.490  0.3762E+00  0.3403E+01
   0.500  0.3738E+00  0.3407E+01
   0.510  0.3715E+00  0.3411E+01
   0.520  0.3691E+00  0.3415E+01
   0.530  0.3668E+00  0.3418E+01
   0.540  0.3646E+00  0.3422E+01
   0.550  0.3623E+00  0.3425E+01
   0.560  0.3601E+00  0.3429E+01
   0.570  0.3579E+00  0.3433E+01
   0.580  0.3558E+00  0.3436E+01
   0.590  0.3536E+00  0.3440E+01
   0.600  0.3515E+00  0.3443E+01
   0.610  0.3494E+00  0.3447E+01
   0.620  0.3473E+00  0.3450E+01
   0.630  0.3452E+00  0.3454E+01
   0.640  0.3431E+00  0.3457E+01
   0.650  0.3410E+00  0.3461E+01
   0.660  0.3390E+00  0.3464E+01
   0.670  0.3370E+00  0.3467E+01
   0.680  0.3350E+00  0.3471E+01
   0.690  0.3330E+00  0.3474E+01
   0.700  0.3311E+00  0.3477E+01
   0.710  0.3291E+00  0.3481E+01
   0.720  0.3272E+00  0.3484E+01
   0.730  0.3253E+00  0.3487E+01
   0.740  0.3235E+00  0.3491E+01
   0.750  0.3216E+00  0.3494E+01
   0.760  0.3198E+00  0.3497E+01
   0.770  0.3180E+00  0.3500E+01
   0.780  0.3162E+00  0.3503E+01
   0.790  0.3145E+00  0.3506E+01
   0.800  0.3128E+00  0.3510E+01
   0.810  0.3111E+00  0.3513E+01
   0.820  0.3094E+00  0.3516E+01
   0.830  0.3077E+00  0.3519E+01
   0.840  0.3061E+00  0.3522E+01
   0.850  0.3045E+00  0.3525E+01
   0.860  0.3031E+00  0.3528E+01
   0.870  0.3016E+00  0.3531E+01
   0.880  0.3002E+00  0.3534E+01
   0.890  0.2988E+00  0.3537E+01
   0.900  0.2974E+00  0.3540E+01
   0.910  0.2959E+00  0.3543E+01
   0.920  0.2945E+00  0.3546E+01
   0.930  0.2931E+00  0.3549E+01
   0.940  0.2916E+00  0.3552E+01
   0.950  0.2902E+00  0.3555E+01
   0.960  0.2887E+00  0.3558E+01
   0.970  0.2873E+00  0.3561E+01
   0.980  0.2859E+00  0.3563E+01
   0.990  0.2848E+00  0.3566E+01
   1.000  0.2837E+00  0.3569E+01
   1.010  0.2826E+00  0.3572E+01
   1.020  0.2814E+00  0.3575E+01
   1.030  0.2801E+00  0.3578E+01
   1.040  0.2788E+00  0.3580E+01
   1.050  0.2775E+00  0.3583E+01
   1.060  0.2762E+00  0.3586E+01
   1.070  0.2748E+00  0.3589E+01
   1.080  0.2734E+00  0.3591E+01
   1.090  0.2719E+00  0.3594E+01
   1.100  0.2705E+00  0.3597E+01
   1.110  0.2689E+00  0.3600E+01
   1.120  0.2674E+00  0.3602E+01
   1.130  0.2657E+00  0.3605E+01
   1.140  0.2639E+00  0.3608E+01
   1.150  0.2621E+00  0.3610E+01
   1.160  0.2604E+00  0.3613E+01
   1.170  0.2586E+00  0.3615E+01
   1.180  0.2569E+00  0.3618E+01
   1.190  0.2552E+00  0.3621E+01
   1.200  0.2535E+00  0.3623E+01
   1.210  0.2518E+00  0.3626E+01
   1.220  0.2501E+00  0.3628E+01
   1.230  0.2485E+00  0.3631E+01
   1.240  0.2469E+00  0.3633E+01
   1.250  0.2452E+00  0.3636E+01
   1.260  0.2436E+00  0.3638E+01
   1.270  0.2421E+00  0.3640E+01
   1.280  0.2405E+00  0.3643E+01
   1.290  0.2389E+00  0.3645E+01
   1.300  0.2374E+00  0.3648E+01
   1.310  0.2359E+00  0.3650E+01
   1.320  0.2344E+00  0.3652E+01
   1.330  0.2329E+00  0.3655E+01
   1.340  0.2314E+00  0.3657E+01
   1.350  0.2299E+00  0.3659E+01
   1.360  0.2284E+00  0.3662E+01
   1.370  0.2268E+00  0.3664E+01
   1.380  0.2254E+00  0.3666E+01
   1.390  0.2242E+00  0.3668E+01
   1.400  0.2231E+00  0.3671E+01
   1.410  0.2219E+00  0.3673E+01
   1.420  0.2208E+00  0.3675E+01
   1.430  0.2197E+00  0.3677E+01
   1.440  0.2185E+00  0.3679E+01
   1.450  0.2174E+00  0.3682E+01
   1.460  0.2163E+00  0.3684E+01
   1.470  0.2152E+00  0.3686E+01
   1.480  0.2141E+00  0.3688E+01
   1.490  0.2130E+00  0.3690E+01
   1.500  0.2119E+00  0.3692E+01
   1.510  0.2108E+00  0.3694E+01
   1.520  0.2097E+00  0.3697E+01
   1.530  0.2086E+00  0.3699E+01
   1.540  0.2075E+00  0.3701E+01
   1.550  0.2064E+00  0.3703E+01
   1.560  0.2063E+00  0.3705E+01
   1.570  0.2079E+00  0.3707E+01
   1.580  0.2114E+00  0.3709E+01
   1.590  0.2167E+00  0.3711E+01
   1.600  0.2237E+00  0.3713E+01
   1.610  0.2326E+00  0.3716E+01
   1.620  0.2433E+00  0.3718E+01
   1.630  0.2558E+00  0.3721E+01
   1.640  0.2700E+00  0.3723E+01
   1.650  0.2861E+00  0.3726E+01
   1.660  0.3040E+00  0.3729E+01
   1.670  0.3237E+00  0.3732E+01
   1.680  0.3452E+00  0.3735E+01
   1.690  0.3685E+00  0.3739E+01
   1.700  0.3936E+00  0.3743E+01
   1.710  0.5704E+00  0.3747E+01
   1.720  0.6605E+00  0.3753E+01
   1.730  0.7299E+00  0.3760E+01
   1.740  0.7814E+00  0.3768E+01
   1.750  0.8348E+00  0.3776E+01
   1.760  0.8934E+00  0.3784E+01
   1.770  0.9487E+00  0.3794E+01
   1.780  0.1001E+01  0.3803E+01
   1.790  0.1050E+01  0.3814E+01
   1.800  0.1092E+01  0.3824E+01
   1.810  0.1129E+01  0.3835E+01
   1.820  0.1165E+01  0.3847E+01
   1.830  0.1200E+01  0.3859E+01
   1.840  0.1233E+01  0.3871E+01
   1.850  0.1267E+01  0.3883E+01
   1.860  0.1299E+01  0.3896E+01
   1.870  0.1318E+01  0.3909E+01
   1.880  0.1328E+01  0.3923E+01
   1.890  0.1334E+01  0.3936E+01
   1.900  0.1339E+01  0.3949E+01
   1.910  0.1340E+01  0.3963E+01
   1.920  0.1336E+01  0.3976E+01
   1.930  0.1327E+01  0.3989E+01
   1.940  0.1319E+01  0.4003E+01
   1.950  0.1309E+01  0.4016E+01
   1.960  0.1298E+01  0.4029E+01
   1.970  0.1287E+01  0.4042E+01
   1.980  0.1275E+01  0.4055E+01
   1.990  0.1262E+01  0.4067E+01
   2.000  0.1250E+01  0.4080E+01
   2.010  0.1239E+01  0.4092E+01
   2.020  0.1231E+01  0.4105E+01
   2.030  0.1225E+01  0.4117E+01
   2.040  0.1219E+01  0.4129E+01
   2.050  0.1214E+01  0.4141E+01
   2.060  0.1209E+01  0.4153E+01
   2.070  0.1204E+01  0.4165E+01
   2.080  0.1200E+01  0.4177E+01
   2.090  0.1196E+01  0.4189E+01
   2.100  0.1193E+01  0.4201E+01
   2.110  0.1189E+01  0.4213E+01
   2.120  0.1186E+01  0.4225E+01
   2.130  0.1183E+01  0.4237E+01
   2.140  0.1181E+01  0.4249E+01
   2.150  0.1178E+01  0.4261E+01
   2.160  0.1176E+01  0.4272E+01
   2.170  0.1185E+01  0.4284E+01
   2.180  0.1207E+01  0.4296E+01
   2.190  0.1188E+01  0.4308E+01
   2.200  0.1170E+01  0.4320E+01
   2.210  0.1155E+01  0.4331E+01
   2.220  0.1141E+01  0.4343E+01
   2.230  0.1129E+01  0.4354E+01
   2.240  0.1118E+01  0.4366E+01
   2.250  0.1109E+01  0.4377E+01
   2.260  0.1102E+01  0.4388E+01
   2.270  0.1097E+01  0.4399E+01
   2.280  0.1093E+01  0.4410E+01
   2.290  0.1090E+01  0.4421E+01
   2.300  0.1088E+01  0.4431E+01
   2.310  0.1085E+01  0.4442E+01
   2.320  0.1082E+01  0.4453E+01
   2.330  0.1082E+01  0.4464E+01
   2.340  0.1084E+01  0.4475E+01
   2.350  0.1088E+01  0.4486E+01
   2.360  0.1089E+01  0.4497E+01
   2.370  0.1084E+01  0.4507E+01
   2.380  0.1072E+01  0.4518E+01
   2.390  0.1055E+01  0.4529E+01
   2.400  0.1051E+01  0.4539E+01
   2.410  0.1050E+01  0.4550E+01
   2.420  0.1051E+01  0.4560E+01
   2.430  0.1053E+01  0.4571E+01
   2.440  0.1055E+01  0.4581E+01
   2.450  0.1057E+01  0.4592E+01
   2.460  0.1059E+01  0.4603E+01
   2.470  0.1061E+01  0.4613E+01
   2.480  0.1063E+01  0.4624E+01
   2.490  0.1064E+01  0.4634E+01
   2.500  0.1065E+01  0.4645E+01
   2.510  0.1067E+01  0.4656E+01
   2.520  0.1069E+01  0.4666E+01
   2.530  0.1071E+01  0.4677E+01
   2.540  0.1074E+01  0.4688E+01
   2.550  0.1077E+01  0.4699E+01
   2.560  0.1081E+01  0.4709E+01
   2.570  0.1084E+01  0.4720E+01
   2.580  0.1089E+01  0.4731E+01
   2.590  0.1093E+01  0.4742E+01
   2.600  0.1098E+01  0.4753E+01
   2.610  0.1104E+01  0.4764E+01
   2.620  0.1109E+01  0.4775E+01
   2.630  0.1114E+01  0.4786E+01
   2.640  0.1119E+01  0.4797E+01
   2.650  0.1125E+01  0.4809E+01
   2.660  0.1131E+01  0.4820E+01
   2.670  0.1138E+01  0.4831E+01
   2.680  0.1144E+01  0.4843E+01
   2.690  0.1151E+01  0.4854E+01
   2.700  0.1158E+01  0.4866E+01
   2.710  0.1165E+01  0.4877E+01
   2.720  0.1172E+01  0.4889E+01
   2.730  0.1401E+01  0.4902E+01
   2.740  0.1265E+01  0.4915E+01
   2.750  0.1264E+01  0.4928E+01
   2.760  0.1261E+01  0.4940E+01
   2.770  0.1255E+01  0.4953E+01
   2.780  0.1263E+01  0.4966E+01
   2.790  0.1270E+01  0.4978E+01
   2.800  0.1278E+01  0.4991E+01
   2.810  0.1285E+01  0.5004E+01
   2.820  0.1292E+01  0.5017E+01
   2.830  0.1302E+01  0.5030E+01
   2.840  0.1312E+01  0.5043E+01
   2.850  0.1323E+01  0.5056E+01
   2.860  0.1334E+01  0.5069E+01
   2.870  0.1345E+01  0.5083E+01
   2.880  0.1356E+01  0.5096E+01
   2.890  0.1368E+01  0.5110E+01
   2.900  0.1379E+01  0.5124E+01
   2.910  0.1391E+01  0.5137E+01
   2.920  0.1404E+01  0.5151E+01
   2.930  0.1421E+01  0.5165E+01
   2.940  0.1440E+01  0.5180E+01
   2.950  0.1461E+01  0.5194E+01
   2.960  0.1485E+01  0.5209E+01
   2.970  0.1505E+01  0.5224E+01
   2.980  0.1526E+01  0.5239E+01
   2.990  0.1567E+01  0.5255E+01
   3.000  0.1604E+01  0.5270E+01
   3.010  0.1636E+01  0.5287E+01
   3.020  0.1648E+01  0.5303E+01
   3.030  0.1648E+01  0.5320E+01
   3.040  0.1635E+01  0.5336E+01
   3.050  0.1637E+01  0.5352E+01
   3.060  0.1642E+01  0.5369E+01
   3.070  0.1644E+01  0.5385E+01
   3.080  0.1644E+01  0.5402E+01
   3.090  0.1642E+01  0.5418E+01
   3.100  0.1621E+01  0.5434E+01
   3.110  0.1595E+01  0.5450E+01
   3.120  0.1579E+01  0.5466E+01
   3.130  0.1574E+01  0.5482E+01
   3.140  0.1571E+01  0.5498E+01
   3.150  0.1569E+01  0.5513E+01
   3.160  0.1568E+01  0.5529E+01
   3.170  0.1567E+01  0.5545E+01
   3.180  0.1567E+01  0.5561E+01
   3.190  0.1569E+01  0.5576E+01
   3.200  0.1571E+01  0.5592E+01
   3.210  0.1573E+01  0.5608E+01
   3.220  0.1576E+01  0.5623E+01
   3.230  0.1578E+01  0.5639E+01
   3.240  0.1581E+01  0.5655E+01
   3.250  0.1624E+01  0.5671E+01
   3.260  0.1632E+01  0.5687E+01
   3.270  0.1620E+01  0.5703E+01
   3.280  0.1610E+01  0.5720E+01
   3.290  0.1603E+01  0.5736E+01
   3.300  0.1597E+01  0.5752E+01
   3.310  0.1592E+01  0.5768E+01
   3.320  0.1584E+01  0.5783E+01
   3.330  0.1575E+01  0.5799E+01
   3.340  0.1567E+01  0.5815E+01
   3.350  0.1560E+01  0.5831E+01
   3.360  0.1553E+01  0.5846E+01
   3.370  0.1547E+01  0.5862E+01
   3.380  0.1541E+01  0.5877E+01
   3.390  0.1536E+01  0.5893E+01
   3.400  0.1531E+01  0.5908E+01
   3.410  0.1516E+01  0.5923E+01
   3.420  0.1512E+01  0.5938E+01
   3.430  0.1508E+01  0.5953E+01
   3.440  0.1505E+01  0.5968E+01
   3.450  0.1502E+01  0.5983E+01
   3.460  0.1503E+01  0.5998E+01
   3.470  0.1507E+01  0.6014E+01
   3.480  0.1512E+01  0.6029E+01
   3.490  0.1518E+01  0.6044E+01
   3.500  0.1527E+01  0.6059E+01
   3.510  0.1535E+01  0.6074E+01
   3.520  0.1525E+01  0.6090E+01
   3.530  0.1497E+01  0.6105E+01
   3.540  0.1481E+01  0.6120E+01
   3.550  0.1476E+01  0.6134E+01
   3.560  0.1471E+01  0.6149E+01
   3.570  0.1466E+01  0.6164E+01
   3.580  0.1461E+01  0.6178E+01
   3.590  0.1456E+01  0.6193E+01
   3.600  0.1451E+01  0.6208E+01
   3.610  0.1446E+01  0.6222E+01
   3.620  0.1441E+01  0.6236E+01
   3.630  0.1437E+01  0.6251E+01
   3.640  0.1433E+01  0.6265E+01
   3.650  0.1429E+01  0.6279E+01
   3.660  0.1427E+01  0.6294E+01
   3.670  0.1427E+01  0.6308E+01
   3.680  0.1428E+01  0.6322E+01
   3.690  0.1430E+01  0.6337E+01
   3.700  0.1434E+01  0.6351E+01
   3.710  0.1447E+01  0.6365E+01
   3.720  0.1459E+01  0.6380E+01
   3.730  0.1445E+01  0.6394E+01
   3.740  0.1438E+01  0.6409E+01
   3.750  0.1432E+01  0.6423E+01
   3.760  0.1426E+01  0.6437E+01
   3.770  0.1422E+01  0.6452E+01
   3.780  0.1417E+01  0.6466E+01
   3.790  0.1414E+01  0.6480E+01
   3.800  0.1411E+01  0.6494E+01
   3.810  0.1409E+01  0.6508E+01
   3.820  0.1408E+01  0.6522E+01
   3.830  0.1407E+01  0.6536E+01
   3.840  0.1406E+01  0.6550E+01
   3.850  0.1404E+01  0.6564E+01
   3.860  0.1403E+01  0.6579E+01
   3.870  0.1402E+01  0.6593E+01
   3.880  0.1399E+01  0.6607E+01
   3.890  0.1396E+01  0.6621E+01
   3.900  0.1393E+01  0.6634E+01
   3.910  0.1390E+01  0.6648E+01
   3.920  0.1387E+01  0.6662E+01
   3.930  0.1384E+01  0.6676E+01
   3.940  0.1382E+01  0.6690E+01
   3.950  0.1415E+01  0.6704E+01
   3.960  0.1438E+01  0.6718E+01
   3.970  0.1450E+01  0.6733E+01
   3.980  0.1449E+01  0.6747E+01
   3.990  0.1443E+01  0.6762E+01
   4.000  0.1432E+01  0.6776E+01
   4.010  0.1416E+01  0.6790E+01
   4.020  0.1396E+01  0.6804E+01
   4.030  0.1374E+01  0.6818E+01
   4.040  0.1369E+01  0.6832E+01
   4.050  0.1364E+01  0.6846E+01
   4.060  0.1359E+01  0.6859E+01
   4.070  0.1355E+01  0.6873E+01
   4.080  0.1350E+01  0.6886E+01
   4.090  0.1346E+01  0.6900E+01
   4.100  0.1342E+01  0.6913E+01
   4.110  0.1338E+01  0.6927E+01
   4.120  0.1334E+01  0.6940E+01
   4.130  0.1330E+01  0.6953E+01
   4.140  0.1327E+01  0.6967E+01
   4.150  0.1323E+01  0.6980E+01
   4.160  0.1320E+01  0.6993E+01
   4.170  0.1318E+01  0.7006E+01
   4.180  0.1321E+01  0.7019E+01
   4.190  0.1342E+01  0.7033E+01
   4.200  0.1357E+01  0.7046E+01
   4.210  0.1374E+01  0.7060E+01
   4.220  0.1382E+01  0.7074E+01
   4.230  0.1380E+01  0.7087E+01
   4.240  0.1372E+01  0.7101E+01
   4.250  0.1363E+01  0.7115E+01
   4.260  0.1352E+01  0.7128E+01
   4.270  0.1337E+01  0.7142E+01
   4.280  0.1326E+01  0.7155E+01
   4.290  0.1319E+01  0.7168E+01
   4.300  0.1312E+01  0.7182E+01
   4.310  0.1307E+01  0.7195E+01
   4.320  0.1301E+01  0.7208E+01
   4.330  0.1296E+01  0.7221E+01
   4.340  0.1290E+01  0.7234E+01
   4.350  0.1284E+01  0.7247E+01
   4.360  0.1278E+01  0.7259E+01
   4.370  0.1271E+01  0.7272E+01
   4.380  0.1265E+01  0.7285E+01
   4.390  0.1258E+01  0.7297E+01
   4.400  0.1251E+01  0.7310E+01
   4.410  0.1249E+01  0.7322E+01
   4.420  0.1257E+01  0.7335E+01
   4.430  0.1269E+01  0.7348E+01
   4.440  0.1272E+01  0.7360E+01
   4.450  0.1267E+01  0.7373E+01
   4.460  0.1261E+01  0.7386E+01
   4.470  0.1253E+01  0.7398E+01
   4.480  0.1243E+01  0.7411E+01
   4.490  0.1232E+01  0.7423E+01
   4.500  0.1222E+01  0.7435E+01
   4.510  0.1224E+01  0.7448E+01
   4.520  0.1208E+01  0.7460E+01
   4.530  0.1186E+01  0.7472E+01
   4.540  0.1163E+01  0.7483E+01
   4.550  0.1138E+01  0.7495E+01
   4.560  0.1111E+01  0.7506E+01
   4.570  0.1082E+01  0.7517E+01
   4.580  0.1050E+01  0.7528E+01
   4.590  0.1018E+01  0.7538E+01
   4.600  0.9845E+00  0.7548E+01
   4.610  0.9527E+00  0.7558E+01
   4.620  0.9244E+00  0.7567E+01
   4.630  0.8997E+00  0.7576E+01
   4.640  0.8784E+00  0.7585E+01
   4.650  0.8607E+00  0.7594E+01
   4.660  0.8447E+00  0.7602E+01
   4.670  0.8289E+00  0.7611E+01
   4.680  0.8134E+00  0.7619E+01
   4.690  0.7982E+00  0.7627E+01
   4.700  0.7832E+00  0.7635E+01
   4.710  0.7688E+00  0.7643E+01
   4.720  0.7547E+00  0.7650E+01
   4.730  0.7410E+00  0.7658E+01
   4.740  0.7276E+00  0.7665E+01
   4.750  0.7146E+00  0.7672E+01
   4.760  0.7019E+00  0.7679E+01
   4.770  0.6896E+00  0.7686E+01
   4.780  0.6777E+00  0.7693E+01
   4.790  0.6661E+00  0.7700E+01
   4.800  0.6396E+00  0.7707E+01
   4.810  0.6316E+00  0.7713E+01
   4.820  0.6319E+00  0.7719E+01
   4.830  0.6318E+00  0.7726E+01
   4.840  0.6310E+00  0.7732E+01
   4.850  0.6293E+00  0.7738E+01
   4.860  0.6232E+00  0.7744E+01
   4.870  0.6142E+00  0.7751E+01
   4.880  0.6052E+00  0.7757E+01
   4.890  0.5962E+00  0.7763E+01
   4.900  0.5873E+00  0.7769E+01
   4.910  0.5829E+00  0.7775E+01
   4.920  0.5780E+00  0.7780E+01
   4.930  0.5723E+00  0.7786E+01
   4.940  0.5658E+00  0.7792E+01
   4.950  0.5765E+00  0.7797E+01
   4.960  0.5824E+00  0.7803E+01
   4.970  0.5792E+00  0.7809E+01
   4.980  0.5667E+00  0.7815E+01
   4.990  0.5450E+00  0.7820E+01
   5.000  0.5142E+00  0.7826E+01
   5.010  0.4897E+00  0.7831E+01
   5.020  0.4759E+00  0.7836E+01
   5.030  0.4615E+00  0.7840E+01
   5.040  0.4512E+00  0.7845E+01
   5.050  0.4416E+00  0.7849E+01
   5.060  0.4316E+00  0.7854E+01
   5.070  0.4213E+00  0.7858E+01
   5.080  0.4139E+00  0.7862E+01
   5.090  0.4079E+00  0.7866E+01
   5.100  0.4022E+00  0.7870E+01
   5.110  0.3995E+00  0.7874E+01
   5.120  0.3966E+00  0.7878E+01
   5.130  0.3935E+00  0.7882E+01
   5.140  0.3902E+00  0.7886E+01
   5.150  0.3867E+00  0.7890E+01
   5.160  0.3829E+00  0.7894E+01
   5.170  0.3790E+00  0.7898E+01
   5.180  0.3723E+00  0.7901E+01
   5.190  0.3654E+00  0.7905E+01
   5.200  0.3585E+00  0.7909E+01
   5.210  0.3516E+00  0.7912E+01
   5.220  0.3446E+00  0.7916E+01
   5.230  0.3376E+00  0.7919E+01
   5.240  0.3306E+00  0.7922E+01
   5.250  0.3235E+00  0.7926E+01
   5.260  0.3164E+00  0.7929E+01
   5.270  0.3093E+00  0.7932E+01
   5.280  0.3021E+00  0.7935E+01
   5.290  0.2949E+00  0.7938E+01
   5.300  0.2877E+00  0.7941E+01
   5.310  0.2805E+00  0.7944E+01
   5.320  0.2732E+00  0.7947E+01
   5.330  0.2659E+00  0.7949E+01
   5.340  0.2583E+00  0.7952E+01
   5.350  0.2502E+00  0.7954E+01
   5.360  0.2415E+00  0.7957E+01
   5.370  0.2325E+00  0.7959E+01
   5.380  0.2234E+00  0.7962E+01
   5.390  0.2142E+00  0.7964E+01
   5.400  0.2048E+00  0.7966E+01
   5.410  0.1953E+00  0.7968E+01
   5.420  0.1872E+00  0.7970E+01
   5.430  0.1817E+00  0.7972E+01
   5.440  0.1761E+00  0.7973E+01
   5.450  0.1705E+00  0.7975E+01
   5.460  0.1649E+00  0.7977E+01
   5.470  0.1591E+00  0.7978E+01
   5.480  0.1534E+00  0.7980E+01
   5.490  0.1476E+00  0.7981E+01
   5.500  0.1418E+00  0.7983E+01
   5.510  0.1359E+00  0.7984E+01
   5.520  0.1300E+00  0.7986E+01
   5.530  0.1240E+00  0.7987E+01
   5.540  0.1180E+00  0.7988E+01
   5.550  0.1119E+00  0.7989E+01
   5.560  0.1059E+00  0.7990E+01
   5.570  0.9972E-01  0.7991E+01
   5.580  0.9354E-01  0.7992E+01
   5.590  0.8731E-01  0.7993E+01
   5.600  0.8105E-01  0.7994E+01
   5.610  0.7474E-01  0.7995E+01
   5.620  0.6838E-01  0.7996E+01
   5.630  0.1173E+00  0.7996E+01
   5.640  0.1048E+00  0.7998E+01
   5.650  0.4601E-01  0.7998E+01
   5.660  0.3816E-01  0.7999E+01
   5.670  0.3104E-01  0.7999E+01
   5.680  0.2466E-01  0.7999E+01
   5.690  0.1901E-01  0.8000E+01
   5.700  0.1410E-01  0.8000E+01
   5.710  0.9918E-02  0.8000E+01
   5.720  0.6470E-02  0.8000E+01
   5.730  0.3756E-02  0.8000E+01
   5.740  0.1775E-02  0.8000E+01
   5.750  0.5282E-03  0.8000E+01
   5.760  0.1468E-04  0.8000E+01
   5.770  0.0000E+00  0.8000E+01
   5.780  0.0000E+00  0.8000E+01
   5.790  0.0000E+00  0.8000E+01
   5.800  0.0000E+00  0.8000E+01
   5.810  0.0000E+00  0.8000E+01
   5.820  0.0000E+00  0.8000E+01
   5.830  0.0000E+00  0.8000E+01
   5.840  0.0000E+00  0.8000E+01
   5.850  0.0000E+00  0.8000E+01
   5.860  0.0000E+00  0.8000E+01
   5.870  0.0000E+00  0.8000E+01
   5.880  0.0000E+00  0.8000E+01
   5.890  0.0000E+00  0.8000E+01
   5.900  0.0000E+00  0.8000E+01
   5.910  0.0000E+00  0.8000E+01
   5.920  0.0000E+00  0.8000E+01
   5.930  0.0000E+00  0.8000E+01
   5.940  0.0000E+00  0.8000E+01
   5.950  0.0000E+00  0.8000E+01
   5.960  0.0000E+00  0.8000E+01
   5.970  0.0000E+00  0.8000E+01
   5.980  0.0000E+00  0.8000E+01
   5.990  0.0000E+00  0.8000E+01
   6.000  0.0000E+00  0.8000E+01
   6.010  0.0000E+00  0.8000E+01
   6.020  0.0000E+00  0.8000E+01
   6.030  0.0000E+00  0.8000E+01
   6.040  0.0000E+00  0.8000E+01
   6.050  0.0000E+00  0.8000E+01
   6.060  0.0000E+00  0.8000E+01
   6.070  0.0000E+00  0.8000E+01
   6.080  0.0000E+00  0.8000E+01
   6.090  0.0000E+00  0.8000E+01
   6.100  0.0000E+00  0.8000E+01
   6.110  0.0000E+00  0.8000E+01
   6.120  0.0000E+00  0.8000E+01
   6.130  0.0000E+00  0.8000E+01
   6.140  0.0000E+00  0.8000E+01
   6.150  0.0000E+00  0.8000E+01
   6.160  0.0000E+00  0.8000E+01
   6.170  0.0000E+00  0.8000E+01
   6.180  0.0000E+00  0.8000E+01
   6.190  0.0000E+00  0.8000E+01
   6.200  0.0000E+00  0.8000E+01
   6.210  0.0000E+00  0.8000E+01
   6.220  0.0000E+00  0.8000E+01
   6.230  0.0000E+00  0.8000E+01
   6.240  0.0000E+00  0.8000E+01
   6.250  0.0000E+00  0.8000E+01
   6.260  0.0000E+00  0.8000E+01
   6.270  0.0000E+00  0.8000E+01
   6.280  0.0000E+00  0.8000E+01
   6.290  0.0000E+00  0.8000E+01
   6.300  0.0000E+00  0.8000E+01
   6.310  0.0000E+00  0.8000E+01
   6.320  0.0000E+00  0.8000E+01
   6.330  0.0000E+00  0.8000E+01
   6.340  0.0000E+00  0.8000E+01
   6.350  0.0000E+00  0.8000E+01
   6.360  0.0000E+00  0.8000E+01
   6.370  0.0000E+00  0.8000E+01
   6.380  0.0000E+00  0.8000E+01
   6.390  0.0000E+00  0.8000E+01
   6.400  0.0000E+00  0.8000E+01
   6.410  0.0000E+00  0.8000E+01
   6.420  0.2293E-03  0.8000E+01
   6.430  0.9380E-03  0.8000E+01
   6.440  0.2126E-02  0.8000E+01
   6.450  0.3794E-02  0.8000E+01
   6.460  0.5941E-02  0.8000E+01
   6.470  0.8568E-02  0.8000E+01
   6.480  0.1167E-01  0.8000E+01
   6.490  0.1526E-01  0.8000E+01
   6.500  0.1933E-01  0.8001E+01
   6.510  0.2387E-01  0.8001E+01
   6.520  0.2889E-01  0.8001E+01
   6.530  0.3440E-01  0.8001E+01
   6.540  0.4038E-01  0.8002E+01
   6.550  0.4684E-01  0.8002E+01
   6.560  0.5404E-01  0.8003E+01
   6.570  0.6359E-01  0.8003E+01
   6.580  0.7582E-01  0.8004E+01
   6.590  0.9072E-01  0.8005E+01
   6.600  0.1083E+00  0.8006E+01
   6.610  0.1286E+00  0.8007E+01
   6.620  0.1380E+00  0.8008E+01
   6.630  0.1437E+00  0.8010E+01
   6.640  0.1498E+00  0.8011E+01
   6.650  0.1562E+00  0.8013E+01
   6.660  0.1630E+00  0.8014E+01
   6.670  0.1701E+00  0.8016E+01
   6.680  0.1775E+00  0.8018E+01
   6.690  0.1853E+00  0.8020E+01
   6.700  0.1934E+00  0.8021E+01
   6.710  0.2019E+00  0.8023E+01
   6.720  0.2079E+00  0.8025E+01
   6.730  0.2134E+00  0.8028E+01
   6.740  0.2190E+00  0.8030E+01
   6.750  0.2248E+00  0.8032E+01
   6.760  0.2308E+00  0.8034E+01
   6.770  0.2370E+00  0.8037E+01
   6.780  0.2432E+00  0.8039E+01
   6.790  0.2495E+00  0.8041E+01
   6.800  0.2558E+00  0.8044E+01
   6.810  0.2622E+00  0.8047E+01
   6.820  0.2687E+00  0.8049E+01
   6.830  0.2752E+00  0.8052E+01
   6.840  0.2818E+00  0.8055E+01
   6.850  0.2884E+00  0.8058E+01
   6.860  0.2950E+00  0.8060E+01
   6.870  0.3017E+00  0.8063E+01
   6.880  0.3085E+00  0.8067E+01
   6.890  0.3153E+00  0.8070E+01
   6.900  0.3222E+00  0.8073E+01
   6.910  0.3290E+00  0.8076E+01
   6.920  0.3359E+00  0.8079E+01
   6.930  0.3427E+00  0.8083E+01
   6.940  0.3498E+00  0.8086E+01
   6.950  0.3576E+00  0.8090E+01
   6.960  0.3663E+00  0.8093E+01
   6.970  0.3758E+00  0.8097E+01
   6.980  0.3862E+00  0.8101E+01
   6.990  0.3973E+00  0.8105E+01
   7.000  0.4093E+00  0.8109E+01
   7.010  0.4221E+00  0.8113E+01
   7.020  0.4320E+00  0.8117E+01
   7.030  0.4390E+00  0.8122E+01
   7.040  0.4470E+00  0.8126E+01
   7.050  0.4559E+00  0.8131E+01
   7.060  0.4658E+00  0.8135E+01
   7.070  0.4762E+00  0.8140E+01
   7.080  0.4876E+00  0.8145E+01
   7.090  0.4998E+00  0.8150E+01
   7.100  0.5128E+00  0.8155E+01
   7.110  0.5267E+00  0.8160E+01
   7.120  0.5414E+00  0.8165E+01
   7.130  0.5570E+00  0.8171E+01
   7.140  0.5735E+00  0.8176E+01
   7.150  0.6835E+00  0.8183E+01
   7.160  0.6086E+00  0.8189E+01
   7.170  0.5476E+00  0.8195E+01
   7.180  0.5529E+00  0.8200E+01
   7.190  0.5587E+00  0.8206E+01
   7.200  0.5654E+00  0.8212E+01
   7.210  0.5722E+00  0.8217E+01
   7.220  0.5790E+00  0.8223E+01
   7.230  0.5857E+00  0.8229E+01
   7.240  0.5924E+00  0.8235E+01
   7.250  0.5992E+00  0.8241E+01
   7.260  0.6061E+00  0.8247E+01
   7.270  0.6131E+00  0.8253E+01
   7.280  0.6204E+00  0.8259E+01
   7.290  0.6277E+00  0.8265E+01
   7.300  0.6352E+00  0.8272E+01
   7.310  0.6428E+00  0.8278E+01
   7.320  0.6506E+00  0.8284E+01
   7.330  0.6584E+00  0.8291E+01
   7.340  0.6664E+00  0.8298E+01
   7.350  0.6746E+00  0.8304E+01
   7.360  0.6830E+00  0.8311E+01
   7.370  0.6917E+00  0.8318E+01
   7.380  0.7005E+00  0.8325E+01
   7.390  0.7096E+00  0.8332E+01
   7.400  0.7187E+00  0.8339E+01
   7.410  0.7280E+00  0.8346E+01
   7.420  0.7375E+00  0.8354E+01
   7.430  0.7472E+00  0.8361E+01
   7.440  0.7570E+00  0.8369E+01
   7.450  0.7669E+00  0.8376E+01
   7.460  0.7771E+00  0.8384E+01
   7.470  0.7873E+00  0.8392E+01
   7.480  0.7978E+00  0.8400E+01
   7.490  0.8205E+00  0.8408E+01
   7.500  0.8828E+00  0.8416E+01
   7.510  0.8904E+00  0.8425E+01
   7.520  0.8960E+00  0.8434E+01
   7.530  0.9001E+00  0.8443E+01
   7.540  0.9037E+00  0.8452E+01
   7.550  0.9069E+00  0.8461E+01
   7.560  0.9116E+00  0.8470E+01
   7.570  0.9208E+00  0.8479E+01
   7.580  0.9352E+00  0.8489E+01
   7.590  0.9497E+00  0.8498E+01
   7.600  0.9643E+00  0.8508E+01
   7.610  0.9790E+00  0.8517E+01
   7.620  0.9938E+00  0.8527E+01
   7.630  0.1009E+01  0.8537E+01
   7.640  0.1024E+01  0.8547E+01
   7.650  0.1039E+01  0.8558E+01
   7.660  0.1054E+01  0.8568E+01
   7.670  0.1070E+01  0.8579E+01
   7.680  0.1286E+01  0.8590E+01
   7.690  0.1356E+01  0.8604E+01
   7.700  0.1233E+01  0.8616E+01
   7.710  0.1264E+01  0.8629E+01
   7.720  0.1294E+01  0.8642E+01
   7.730  0.1322E+01  0.8655E+01
   7.740  0.1354E+01  0.8668E+01
   7.750  0.1395E+01  0.8682E+01
   7.760  0.1445E+01  0.8696E+01
   7.770  0.1505E+01  0.8711E+01
   7.780  0.1551E+01  0.8726E+01
   7.790  0.1572E+01  0.8742E+01
   7.800  0.1572E+01  0.8757E+01
   7.810  0.1574E+01  0.8773E+01
   7.820  0.1577E+01  0.8789E+01
   7.830  0.1593E+01  0.8805E+01
   7.840  0.1613E+01  0.8821E+01
   7.850  0.1633E+01  0.8837E+01
   7.860  0.1652E+01  0.8853E+01
   7.870  0.1670E+01  0.8870E+01
   7.880  0.1687E+01  0.8887E+01
   7.890  0.1705E+01  0.8904E+01
   7.900  0.1719E+01  0.8921E+01
   7.910  0.1732E+01  0.8938E+01
   7.920  0.1744E+01  0.8956E+01
   7.930  0.1757E+01  0.8973E+01
   7.940  0.1769E+01  0.8991E+01
   7.950  0.1784E+01  0.9008E+01
   7.960  0.1800E+01  0.9026E+01
   7.970  0.1816E+01  0.9044E+01
   7.980  0.1835E+01  0.9063E+01
   7.990  0.1858E+01  0.9081E+01
   8.000  0.1886E+01  0.9100E+01
   8.010  0.1918E+01  0.9119E+01
   8.020  0.1953E+01  0.9138E+01
   8.030  0.1992E+01  0.9158E+01
   8.040  0.2034E+01  0.9178E+01
   8.050  0.2110E+01  0.9199E+01
   8.060  0.2194E+01  0.9220E+01
   8.070  0.2183E+01  0.9242E+01
   8.080  0.2166E+01  0.9264E+01
   8.090  0.2147E+01  0.9286E+01
   8.100  0.2149E+01  0.9307E+01
   8.110  0.2148E+01  0.9329E+01
   8.120  0.2146E+01  0.9350E+01
   8.130  0.2141E+01  0.9371E+01
   8.140  0.2126E+01  0.9393E+01
   8.150  0.2110E+01  0.9414E+01
   8.160  0.2092E+01  0.9435E+01
   8.170  0.2072E+01  0.9456E+01
   8.180  0.2050E+01  0.9476E+01
   8.190  0.2025E+01  0.9497E+01
   8.200  0.1999E+01  0.9517E+01
   8.210  0.1970E+01  0.9537E+01
   8.220  0.1939E+01  0.9556E+01
   8.230  0.1902E+01  0.9576E+01
   8.240  0.1857E+01  0.9594E+01
   8.250  0.1811E+01  0.9613E+01
   8.260  0.1766E+01  0.9631E+01
   8.270  0.1733E+01  0.9648E+01
   8.280  0.1699E+01  0.9665E+01
   8.290  0.1664E+01  0.9682E+01
   8.300  0.1627E+01  0.9698E+01
   8.310  0.1589E+01  0.9715E+01
   8.320  0.1550E+01  0.9730E+01
   8.330  0.1512E+01  0.9746E+01
   8.340  0.1475E+01  0.9760E+01
   8.350  0.1435E+01  0.9775E+01
   8.360  0.1402E+01  0.9789E+01
   8.370  0.1377E+01  0.9803E+01
   8.380  0.1353E+01  0.9817E+01
   8.390  0.1331E+01  0.9830E+01
   8.400  0.1309E+01  0.9843E+01
   8.410  0.1289E+01  0.9856E+01
   8.420  0.1264E+01  0.9869E+01
   8.430  0.1239E+01  0.9882E+01
   8.440  0.1216E+01  0.9894E+01
   8.450  0.1193E+01  0.9906E+01
   8.460  0.1170E+01  0.9918E+01
   8.470  0.1148E+01  0.9929E+01
   8.480  0.1127E+01  0.9941E+01
   8.490  0.1107E+01  0.9952E+01
   8.500  0.1088E+01  0.9963E+01
   8.510  0.1074E+01  0.9974E+01
   8.520  0.1072E+01  0.9984E+01
   8.530  0.1060E+01  0.9995E+01
   8.540  0.1041E+01  0.1001E+02
   8.550  0.1018E+01  0.1002E+02
   8.560  0.1006E+01  0.1003E+02
   8.570  0.9934E+00  0.1004E+02
   8.580  0.9813E+00  0.1005E+02
   8.590  0.9696E+00  0.1006E+02
   8.600  0.9583E+00  0.1007E+02
   8.610  0.9474E+00  0.1007E+02
   8.620  0.9370E+00  0.1008E+02
   8.630  0.9271E+00  0.1009E+02
   8.640  0.9176E+00  0.1010E+02
   8.650  0.9086E+00  0.1011E+02
   8.660  0.9002E+00  0.1012E+02
   8.670  0.8921E+00  0.1013E+02
   8.680  0.8845E+00  0.1014E+02
   8.690  0.8799E+00  0.1015E+02
   8.700  0.8775E+00  0.1016E+02
   8.710  0.8755E+00  0.1017E+02
   8.720  0.8738E+00  0.1017E+02
   8.730  0.8725E+00  0.1018E+02
   8.740  0.8716E+00  0.1019E+02
   8.750  0.8711E+00  0.1020E+02
   8.760  0.8710E+00  0.1021E+02
   8.770  0.8712E+00  0.1022E+02
   8.780  0.8715E+00  0.1023E+02
   8.790  0.8691E+00  0.1023E+02
   8.800  0.8670E+00  0.1024E+02
   8.810  0.8655E+00  0.1025E+02
   8.820  0.8644E+00  0.1026E+02
   8.830  0.8639E+00  0.1027E+02
   8.840  0.8638E+00  0.1028E+02
   8.850  0.9103E+00  0.1029E+02
   8.860  0.9301E+00  0.1030E+02
   8.870  0.9511E+00  0.1031E+02
   8.880  0.9962E+00  0.1032E+02
   8.890  0.1011E+01  0.1033E+02
   8.900  0.9904E+00  0.1034E+02
   8.910  0.9856E+00  0.1035E+02
   8.920  0.1003E+01  0.1036E+02
   8.930  0.1028E+01  0.1037E+02
   8.940  0.1059E+01  0.1038E+02
   8.950  0.1096E+01  0.1039E+02
   8.960  0.1136E+01  0.1040E+02
   8.970  0.1182E+01  0.1041E+02
   8.980  0.1233E+01  0.1042E+02
   8.990  0.1293E+01  0.1043E+02
   9.000  0.1361E+01  0.1045E+02
   9.010  0.1437E+01  0.1046E+02
   9.020  0.1539E+01  0.1048E+02
   9.030  0.1676E+01  0.1049E+02
   9.040  0.1790E+01  0.1051E+02
   9.050  0.1860E+01  0.1053E+02
   9.060  0.1925E+01  0.1055E+02
   9.070  0.1984E+01  0.1057E+02
   9.080  0.2040E+01  0.1059E+02
   9.090  0.2095E+01  0.1061E+02
   9.100  0.2146E+01  0.1063E+02
   9.110  0.2189E+01  0.1065E+02
   9.120  0.2237E+01  0.1067E+02
   9.130  0.2294E+01  0.1069E+02
   9.140  0.2352E+01  0.1072E+02
   9.150  0.2300E+01  0.1074E+02
   9.160  0.2200E+01  0.1076E+02
   9.170  0.2153E+01  0.1079E+02
   9.180  0.2131E+01  0.1081E+02
   9.190  0.2113E+01  0.1083E+02
   9.200  0.2097E+01  0.1085E+02
   9.210  0.2073E+01  0.1087E+02
   9.220  0.2046E+01  0.1089E+02
   9.230  0.2022E+01  0.1091E+02
   9.240  0.2003E+01  0.1093E+02
   9.250  0.1983E+01  0.1095E+02
   9.260  0.1963E+01  0.1097E+02
   9.270  0.1941E+01  0.1099E+02
   9.280  0.1919E+01  0.1101E+02
   9.290  0.1900E+01  0.1103E+02
   9.300  0.1883E+01  0.1105E+02
   9.310  0.1880E+01  0.1107E+02
   9.320  0.1898E+01  0.1109E+02
   9.330  0.1930E+01  0.1110E+02
   9.340  0.1959E+01  0.1112E+02
   9.350  0.1973E+01  0.1114E+02
   9.360  0.1986E+01  0.1116E+02
   9.370  0.1992E+01  0.1118E+02
   9.380  0.1991E+01  0.1120E+02
   9.390  0.1982E+01  0.1122E+02
   9.400  0.1974E+01  0.1124E+02
   9.410  0.1970E+01  0.1126E+02
   9.420  0.1964E+01  0.1128E+02
   9.430  0.1954E+01  0.1130E+02
   9.440  0.1942E+01  0.1132E+02
   9.450  0.1926E+01  0.1134E+02
   9.460  0.1911E+01  0.1136E+02
   9.470  0.1944E+01  0.1138E+02
   9.480  0.2047E+01  0.1140E+02
   9.490  0.1859E+01  0.1142E+02
   9.500  0.1845E+01  0.1144E+02
   9.510  0.1831E+01  0.1146E+02
   9.520  0.1816E+01  0.1147E+02
   9.530  0.1802E+01  0.1149E+02
   9.540  0.1786E+01  0.1151E+02
   9.550  0.1771E+01  0.1153E+02
   9.560  0.1755E+01  0.1154E+02
   9.570  0.1741E+01  0.1156E+02
   9.580  0.1726E+01  0.1158E+02
   9.590  0.1712E+01  0.1160E+02
   9.600  0.1699E+01  0.1161E+02
   9.610  0.1686E+01  0.1163E+02
   9.620  0.1674E+01  0.1165E+02
   9.630  0.1662E+01  0.1166E+02
   9.640  0.1650E+01  0.1168E+02
   9.650  0.1632E+01  0.1170E+02
   9.660  0.1614E+01  0.1171E+02
   9.670  0.1596E+01  0.1173E+02
   9.680  0.1577E+01  0.1175E+02
   9.690  0.1559E+01  0.1176E+02
   9.700  0.1540E+01  0.1178E+02
   9.710  0.1521E+01  0.1179E+02
   9.720  0.1501E+01  0.1181E+02
   9.730  0.1480E+01  0.1182E+02
   9.740  0.1460E+01  0.1184E+02
   9.750  0.1442E+01  0.1185E+02
   9.760  0.1426E+01  0.1187E+02
   9.770  0.1411E+01  0.1188E+02
   9.780  0.1395E+01  0.1189E+02
   9.790  0.1379E+01  0.1191E+02
   9.800  0.1363E+01  0.1192E+02
   9.810  0.1347E+01  0.1193E+02
   9.820  0.1337E+01  0.1195E+02
   9.830  0.1328E+01  0.1196E+02
   9.840  0.1319E+01  0.1197E+02
   9.850  0.1310E+01  0.1199E+02
   9.860  0.1301E+01  0.1200E+02
   9.870  0.1293E+01  0.1201E+02
   9.880  0.1286E+01  0.1203E+02
   9.890  0.1276E+01  0.1204E+02
   9.900  0.1265E+01  0.1205E+02
   9.910  0.1259E+01  0.1207E+02
   9.920  0.1256E+01  0.1208E+02
   9.930  0.1254E+01  0.1209E+02
   9.940  0.1253E+01  0.1210E+02
   9.950  0.1253E+01  0.1212E+02
   9.960  0.1254E+01  0.1213E+02
   9.970  0.1256E+01  0.1214E+02
   9.980  0.1259E+01  0.1215E+02
   9.990  0.1263E+01  0.1217E+02
  10.000  0.1267E+01  0.1218E+02
  10.010  0.1273E+01  0.1219E+02
  10.020  0.1280E+01  0.1220E+02
  10.030  0.1287E+01  0.1222E+02
  10.040  0.1307E+01  0.1223E+02
  10.050  0.1293E+01  0.1224E+02
  10.060  0.1281E+01  0.1226E+02
  10.070  0.1269E+01  0.1227E+02
  10.080  0.1259E+01  0.1228E+02
  10.090  0.1250E+01  0.1229E+02
  10.100  0.1242E+01  0.1231E+02
  10.110  0.1234E+01  0.1232E+02
  10.120  0.1228E+01  0.1233E+02
  10.130  0.1223E+01  0.1234E+02
  10.140  0.1221E+01  0.1236E+02
  10.150  0.1221E+01  0.1237E+02
  10.160  0.1224E+01  0.1238E+02
  10.170  0.1230E+01  0.1239E+02
  10.180  0.1240E+01  0.1240E+02
  10.190  0.1252E+01  0.1242E+02
  10.200  0.1260E+01  0.1243E+02
  10.210  0.1250E+01  0.1244E+02
  10.220  0.1253E+01  0.1245E+02
  10.230  0.1302E+01  0.1247E+02
  10.240  0.1369E+01  0.1248E+02
  10.250  0.1449E+01  0.1249E+02
  10.260  0.1439E+01  0.1251E+02
  10.270  0.1422E+01  0.1252E+02
  10.280  0.1404E+01  0.1254E+02
  10.290  0.1384E+01  0.1255E+02
  10.300  0.1361E+01  0.1256E+02
  10.310  0.1339E+01  0.1258E+02
  10.320  0.1317E+01  0.1259E+02
  10.330  0.1295E+01  0.1260E+02
  10.340  0.1273E+01  0.1262E+02
  10.350  0.1252E+01  0.1263E+02
  10.360  0.1229E+01  0.1264E+02
  10.370  0.1206E+01  0.1265E+02
  10.380  0.1185E+01  0.1267E+02
  10.390  0.1169E+01  0.1268E+02
  10.400  0.1152E+01  0.1269E+02
  10.410  0.1135E+01  0.1270E+02
  10.420  0.1118E+01  0.1271E+02
  10.430  0.1102E+01  0.1272E+02
  10.440  0.1088E+01  0.1273E+02
  10.450  0.1075E+01  0.1275E+02
  10.460  0.1064E+01  0.1276E+02
  10.470  0.1053E+01  0.1277E+02
  10.480  0.1049E+01  0.1278E+02
  10.490  0.1048E+01  0.1279E+02
  10.500  0.1046E+01  0.1280E+02
  10.510  0.1045E+01  0.1281E+02
  10.520  0.1045E+01  0.1282E+02
  10.530  0.1046E+01  0.1283E+02
  10.540  0.1048E+01  0.1284E+02
  10.550  0.1051E+01  0.1285E+02
  10.560  0.1055E+01  0.1286E+02
  10.570  0.1120E+01  0.1287E+02
  10.580  0.1136E+01  0.1288E+02
  10.590  0.1117E+01  0.1289E+02
  10.600  0.1126E+01  0.1291E+02
  10.610  0.1138E+01  0.1292E+02
  10.620  0.1153E+01  0.1293E+02
  10.630  0.1172E+01  0.1294E+02
  10.640  0.1179E+01  0.1295E+02
  10.650  0.1188E+01  0.1296E+02
  10.660  0.1208E+01  0.1298E+02
  10.670  0.1240E+01  0.1299E+02
  10.680  0.1265E+01  0.1300E+02
  10.690  0.1282E+01  0.1301E+02
  10.700  0.1291E+01  0.1303E+02
  10.710  0.1292E+01  0.1304E+02
  10.720  0.1285E+01  0.1305E+02
  10.730  0.1271E+01  0.1306E+02
  10.740  0.1255E+01  0.1308E+02
  10.750  0.1257E+01  0.1309E+02
  10.760  0.1257E+01  0.1310E+02
  10.770  0.1255E+01  0.1312E+02
  10.780  0.1253E+01  0.1313E+02
  10.790  0.1251E+01  0.1314E+02
  10.800  0.1249E+01  0.1315E+02
  10.810  0.1248E+01  0.1317E+02
  10.820  0.1246E+01  0.1318E+02
  10.830  0.1244E+01  0.1319E+02
  10.840  0.1243E+01  0.1320E+02
  10.850  0.1242E+01  0.1321E+02
  10.860  0.1240E+01  0.1323E+02
  10.870  0.1239E+01  0.1324E+02
  10.880  0.1238E+01  0.1325E+02
  10.890  0.1238E+01  0.1326E+02
  10.900  0.1237E+01  0.1328E+02
  10.910  0.1237E+01  0.1329E+02
  10.920  0.1236E+01  0.1330E+02
  10.930  0.1236E+01  0.1331E+02
  10.940  0.1236E+01  0.1333E+02
  10.950  0.1236E+01  0.1334E+02
  10.960  0.1234E+01  0.1335E+02
  10.970  0.1232E+01  0.1336E+02
  10.980  0.1231E+01  0.1338E+02
  10.990  0.1229E+01  0.1339E+02
  11.000  0.1227E+01  0.1340E+02
  11.010  0.1225E+01  0.1341E+02
  11.020  0.1223E+01  0.1342E+02
  11.030  0.1221E+01  0.1344E+02
  11.040  0.1219E+01  0.1345E+02
  11.050  0.1218E+01  0.1346E+02
  11.060  0.1217E+01  0.1347E+02
  11.070  0.1216E+01  0.1349E+02
  11.080  0.1217E+01  0.1350E+02
  11.090  0.1218E+01  0.1351E+02
  11.100  0.1221E+01  0.1352E+02
  11.110  0.1223E+01  0.1353E+02
  11.120  0.1224E+01  0.1355E+02
  11.130  0.1225E+01  0.1356E+02
  11.140  0.1224E+01  0.1357E+02
  11.150  0.1222E+01  0.1358E+02
  11.160  0.1219E+01  0.1360E+02
  11.170  0.1219E+01  0.1361E+02
  11.180  0.1218E+01  0.1362E+02
  11.190  0.1217E+01  0.1363E+02
  11.200  0.1215E+01  0.1364E+02
  11.210  0.1213E+01  0.1366E+02
  11.220  0.1211E+01  0.1367E+02
  11.230  0.1209E+01  0.1368E+02
  11.240  0.1202E+01  0.1369E+02
  11.250  0.1192E+01  0.1370E+02
  11.260  0.1188E+01  0.1372E+02
  11.270  0.1188E+01  0.1373E+02
  11.280  0.1189E+01  0.1374E+02
  11.290  0.1190E+01  0.1375E+02
  11.300  0.1191E+01  0.1376E+02
  11.310  0.1192E+01  0.1378E+02
  11.320  0.1192E+01  0.1379E+02
  11.330  0.1193E+01  0.1380E+02
  11.340  0.1193E+01  0.1381E+02
  11.350  0.1192E+01  0.1382E+02
  11.360  0.1191E+01  0.1384E+02
  11.370  0.1190E+01  0.1385E+02
  11.380  0.1188E+01  0.1386E+02
  11.390  0.1185E+01  0.1387E+02
  11.400  0.1182E+01  0.1388E+02
  11.410  0.1178E+01  0.1390E+02
  11.420  0.1174E+01  0.1391E+02
  11.430  0.1170E+01  0.1392E+02
  11.440  0.1163E+01  0.1393E+02
  11.450  0.1155E+01  0.1394E+02
  11.460  0.1145E+01  0.1395E+02
  11.470  0.1135E+01  0.1396E+02
  11.480  0.1123E+01  0.1398E+02
  11.490  0.1111E+01  0.1399E+02
  11.500  0.1099E+01  0.1400E+02
  11.510  0.1086E+01  0.1401E+02
  11.520  0.1072E+01  0.1402E+02
  11.530  0.1059E+01  0.1403E+02
  11.540  0.1051E+01  0.1404E+02
  11.550  0.1043E+01  0.1405E+02
  11.560  0.1035E+01  0.1406E+02
  11.570  0.1027E+01  0.1407E+02
  11.580  0.1019E+01  0.1408E+02
  11.590  0.1011E+01  0.1409E+02
  11.600  0.1004E+01  0.1410E+02
  11.610  0.1003E+01  0.1411E+02
  11.620  0.1010E+01  0.1412E+02
  11.630  0.1023E+01  0.1413E+02
  11.640  0.1057E+01  0.1414E+02
  11.650  0.1019E+01  0.1415E+02
  11.660  0.9864E+00  0.1416E+02
  11.670  0.9475E+00  0.1417E+02
  11.680  0.9361E+00  0.1418E+02
  11.690  0.9246E+00  0.1419E+02
  11.700  0.9133E+00  0.1420E+02
  11.710  0.9025E+00  0.1421E+02
  11.720  0.8966E+00  0.1422E+02
  11.730  0.8915E+00  0.1423E+02
  11.740  0.8874E+00  0.1424E+02
  11.750  0.8841E+00  0.1425E+02
  11.760  0.8818E+00  0.1425E+02
  11.770  0.8805E+00  0.1426E+02
  11.780  0.8801E+00  0.1427E+02
  11.790  0.8800E+00  0.1428E+02
  11.800  0.8803E+00  0.1429E+02
  11.810  0.8809E+00  0.1430E+02
  11.820  0.8818E+00  0.1431E+02
  11.830  0.8831E+00  0.1432E+02
  11.840  0.8847E+00  0.1433E+02
  11.850  0.8866E+00  0.1433E+02
  11.860  0.8878E+00  0.1434E+02
  11.870  0.8934E+00  0.1435E+02
  11.880  0.9016E+00  0.1436E+02
  11.890  0.9105E+00  0.1437E+02
  11.900  0.9202E+00  0.1438E+02
  11.910  0.9307E+00  0.1439E+02
  11.920  0.9419E+00  0.1440E+02
  11.930  0.9534E+00  0.1441E+02
  11.940  0.9644E+00  0.1442E+02
  11.950  0.9754E+00  0.1443E+02
  11.960  0.9864E+00  0.1444E+02
  11.970  0.9972E+00  0.1445E+02
  11.980  0.1008E+01  0.1446E+02
  11.990  0.1018E+01  0.1447E+02
  12.000  0.1029E+01  0.1448E+02
  12.010  0.1039E+01  0.1449E+02
  12.020  0.1050E+01  0.1450E+02
  12.030  0.1060E+01  0.1451E+02
  12.040  0.1070E+01  0.1452E+02
  12.050  0.1080E+01  0.1453E+02
  12.060  0.1090E+01  0.1454E+02
  12.070  0.1100E+01  0.1455E+02
  12.080  0.1110E+01  0.1456E+02
  12.090  0.1120E+01  0.1457E+02
  12.100  0.1129E+01  0.1458E+02
  12.110  0.1131E+01  0.1460E+02
  12.120  0.1130E+01  0.1461E+02
  12.130  0.1135E+01  0.1462E+02
  12.140  0.1140E+01  0.1463E+02
  12.150  0.1144E+01  0.1464E+02
  12.160  0.1148E+01  0.1465E+02
  12.170  0.1152E+01  0.1466E+02
  12.180  0.1155E+01  0.1468E+02
  12.190  0.1158E+01  0.1469E+02
  12.200  0.1161E+01  0.1470E+02
  12.210  0.1163E+01  0.1471E+02
  12.220  0.1165E+01  0.1472E+02
  12.230  0.1166E+01  0.1473E+02
  12.240  0.1168E+01  0.1475E+02
  12.250  0.1168E+01  0.1476E+02
  12.260  0.1169E+01  0.1477E+02
  12.270  0.1169E+01  0.1478E+02
  12.280  0.1169E+01  0.1479E+02
  12.290  0.1169E+01  0.1480E+02
  12.300  0.1168E+01  0.1482E+02
  12.310  0.1167E+01  0.1483E+02
  12.320  0.1165E+01  0.1484E+02
  12.330  0.1166E+01  0.1485E+02
  12.340  0.1164E+01  0.1486E+02
  12.350  0.1162E+01  0.1487E+02
  12.360  0.1161E+01  0.1489E+02
  12.370  0.1160E+01  0.1490E+02
  12.380  0.1159E+01  0.1491E+02
  12.390  0.1158E+01  0.1492E+02
  12.400  0.1158E+01  0.1493E+02
  12.410  0.1158E+01  0.1494E+02
  12.420  0.1157E+01  0.1496E+02
  12.430  0.1155E+01  0.1497E+02
  12.440  0.1153E+01  0.1498E+02
  12.450  0.1150E+01  0.1499E+02
  12.460  0.1147E+01  0.1500E+02
  12.470  0.1143E+01  0.1501E+02
  12.480  0.1136E+01  0.1502E+02
  12.490  0.1130E+01  0.1504E+02
  12.500  0.1123E+01  0.1505E+02
  12.510  0.1115E+01  0.1506E+02
  12.520  0.1108E+01  0.1507E+02
  12.530  0.1100E+01  0.1508E+02
  12.540  0.1092E+01  0.1509E+02
  12.550  0.1084E+01  0.1510E+02
  12.560  0.1075E+01  0.1511E+02
  12.570  0.1067E+01  0.1512E+02
  12.580  0.1058E+01  0.1513E+02
  12.590  0.1048E+01  0.1514E+02
  12.600  0.1039E+01  0.1515E+02
  12.610  0.1029E+01  0.1517E+02
  12.620  0.1019E+01  0.1518E+02
  12.630  0.1009E+01  0.1519E+02
  12.640  0.9991E+00  0.1520E+02
  12.650  0.9883E+00  0.1521E+02
  12.660  0.9767E+00  0.1522E+02
  12.670  0.9651E+00  0.1523E+02
  12.680  0.9532E+00  0.1523E+02
  12.690  0.9411E+00  0.1524E+02
  12.700  0.9289E+00  0.1525E+02
  12.710  0.9164E+00  0.1526E+02
  12.720  0.9033E+00  0.1527E+02
  12.730  0.8899E+00  0.1528E+02
  12.740  0.8765E+00  0.1529E+02
  12.750  0.8636E+00  0.1530E+02
  12.760  0.8512E+00  0.1531E+02
  12.770  0.8393E+00  0.1532E+02
  12.780  0.8280E+00  0.1532E+02
  12.790  0.8172E+00  0.1533E+02
  12.800  0.8072E+00  0.1534E+02
  12.810  0.7977E+00  0.1535E+02
  12.820  0.7888E+00  0.1536E+02
  12.830  0.7806E+00  0.1536E+02
  12.840  0.7728E+00  0.1537E+02
  12.850  0.7640E+00  0.1538E+02
  12.860  0.7555E+00  0.1539E+02
  12.870  0.7473E+00  0.1539E+02
  12.880  0.7394E+00  0.1540E+02
  12.890  0.7318E+00  0.1541E+02
  12.900  0.7245E+00  0.1542E+02
  12.910  0.7174E+00  0.1542E+02
  12.920  0.7107E+00  0.1543E+02
  12.930  0.7042E+00  0.1544E+02
  12.940  0.6981E+00  0.1544E+02
  12.950  0.6922E+00  0.1545E+02
  12.960  0.6866E+00  0.1546E+02
  12.970  0.6813E+00  0.1547E+02
  12.980  0.6763E+00  0.1547E+02
  12.990  0.6716E+00  0.1548E+02
  13.000  0.6672E+00  0.1549E+02
  13.010  0.6628E+00  0.1549E+02
  13.020  0.6598E+00  0.1550E+02
  13.030  0.6565E+00  0.1551E+02
  13.040  0.6526E+00  0.1551E+02
  13.050  0.6482E+00  0.1552E+02
  13.060  0.6433E+00  0.1553E+02
  13.070  0.6394E+00  0.1553E+02
  13.080  0.6254E+00  0.1554E+02
  13.090  0.6159E+00  0.1554E+02
  13.100  0.6041E+00  0.1555E+02
  13.110  0.5901E+00  0.1556E+02
  13.120  0.5739E+00  0.1556E+02
  13.130  0.5574E+00  0.1557E+02
  13.140  0.5437E+00  0.1557E+02
  13.150  0.5300E+00  0.1558E+02
  13.160  0.5246E+00  0.1558E+02
  13.170  0.5195E+00  0.1559E+02
  13.180  0.5145E+00  0.1559E+02
  13.190  0.5096E+00  0.1560E+02
  13.200  0.5050E+00  0.1560E+02
  13.210  0.5005E+00  0.1561E+02
  13.220  0.4965E+00  0.1561E+02
  13.230  0.4929E+00  0.1562E+02
  13.240  0.4894E+00  0.1562E+02
  13.250  0.4858E+00  0.1563E+02
  13.260  0.4823E+00  0.1563E+02
  13.270  0.4789E+00  0.1564E+02
  13.280  0.4754E+00  0.1564E+02
  13.290  0.4720E+00  0.1565E+02
  13.300  0.4685E+00  0.1565E+02
  13.310  0.4652E+00  0.1566E+02
  13.320  0.4618E+00  0.1566E+02
  13.330  0.4584E+00  0.1567E+02
  13.340  0.4551E+00  0.1567E+02
  13.350  0.4518E+00  0.1568E+02
  13.360  0.4485E+00  0.1568E+02
  13.370  0.4453E+00  0.1569E+02
  13.380  0.4420E+00  0.1569E+02
  13.390  0.4388E+00  0.1569E+02
  13.400  0.4356E+00  0.1570E+02
  13.410  0.4325E+00  0.1570E+02
  13.420  0.4293E+00  0.1571E+02
  13.430  0.4262E+00  0.1571E+02
  13.440  0.4231E+00  0.1572E+02
  13.450  0.4211E+00  0.1572E+02
  13.460  0.4205E+00  0.1572E+02
  13.470  0.4215E+00  0.1573E+02
  13.480  0.4240E+00  0.1573E+02
  13.490  0.4281E+00  0.1574E+02
  13.500  0.4337E+00  0.1574E+02
  13.510  0.4406E+00  0.1575E+02
  13.520  0.4478E+00  0.1575E+02
  13.530  0.4547E+00  0.1575E+02
  13.540  0.4614E+00  0.1576E+02
  13.550  0.4679E+00  0.1576E+02
  13.560  0.4742E+00  0.1577E+02
  13.570  0.4803E+00  0.1577E+02
  13.580  0.4973E+00  0.1578E+02
  13.590  0.5087E+00  0.1578E+02
  13.600  0.5104E+00  0.1579E+02
  13.610  0.5023E+00  0.1579E+02
  13.620  0.4844E+00  0.1580E+02
  13.630  0.4567E+00  0.1580E+02
  13.640  0.4192E+00  0.1581E+02
  13.650  0.3720E+00  0.1581E+02
  13.660  0.3152E+00  0.1581E+02
  13.670  0.2702E+00  0.1582E+02
  13.680  0.2327E+00  0.1582E+02
  13.690  0.2309E+00  0.1582E+02
  13.700  0.2291E+00  0.1582E+02
  13.710  0.2273E+00  0.1583E+02
  13.720  0.2256E+00  0.1583E+02
  13.730  0.2238E+00  0.1583E+02
  13.740  0.2221E+00  0.1583E+02
  13.750  0.2203E+00  0.1584E+02
  13.760  0.2186E+00  0.1584E+02
  13.770  0.2169E+00  0.1584E+02
  13.780  0.2152E+00  0.1584E+02
  13.790  0.2135E+00  0.1584E+02
  13.800  0.2118E+00  0.1585E+02
  13.810  0.2102E+00  0.1585E+02
  13.820  0.2085E+00  0.1585E+02
  13.830  0.2068E+00  0.1585E+02
  13.840  0.2052E+00  0.1585E+02
  13.850  0.2036E+00  0.1586E+02
  13.860  0.2020E+00  0.1586E+02
  13.870  0.2004E+00  0.1586E+02
  13.880  0.1988E+00  0.1586E+02
  13.890  0.1973E+00  0.1586E+02
  13.900  0.1958E+00  0.1587E+02
  13.910  0.1943E+00  0.1587E+02
  13.920  0.1929E+00  0.1587E+02
  13.930  0.1915E+00  0.1587E+02
  13.940  0.1901E+00  0.1587E+02
  13.950  0.1888E+00  0.1588E+02
  13.960  0.1874E+00  0.1588E+02
  13.970  0.1861E+00  0.1588E+02
  13.980  0.1849E+00  0.1588E+02
  13.990  0.1836E+00  0.1588E+02
  14.000  0.1824E+00  0.1589E+02
  14.010  0.1812E+00  0.1589E+02
  14.020  0.1800E+00  0.1589E+02
  14.030  0.1789E+00  0.1589E+02
  14.040  0.1778E+00  0.1589E+02
  14.050  0.1767E+00  0.1589E+02
  14.060  0.1757E+00  0.1590E+02
  14.070  0.1747E+00  0.1590E+02
  14.080  0.1737E+00  0.1590E+02
  14.090  0.1727E+00  0.1590E+02
  14.100  0.1718E+00  0.1590E+02
  14.110  0.1709E+00  0.1591E+02
  14.120  0.1709E+00  0.1591E+02
  14.130  0.1710E+00  0.1591E+02
  14.140  0.1711E+00  0.1591E+02
  14.150  0.1712E+00  0.1591E+02
  14.160  0.1712E+00  0.1591E+02
  14.170  0.1712E+00  0.1592E+02
  14.180  0.1711E+00  0.1592E+02
  14.190  0.1710E+00  0.1592E+02
  14.200  0.1709E+00  0.1592E+02
  14.210  0.1708E+00  0.1592E+02
  14.220  0.1706E+00  0.1592E+02
  14.230  0.1703E+00  0.1593E+02
  14.240  0.1701E+00  0.1593E+02
  14.250  0.1698E+00  0.1593E+02
  14.260  0.1695E+00  0.1593E+02
  14.270  0.1691E+00  0.1593E+02
  14.280  0.1687E+00  0.1593E+02
  14.290  0.1683E+00  0.1594E+02
  14.300  0.1678E+00  0.1594E+02
  14.310  0.1673E+00  0.1594E+02
  14.320  0.1668E+00  0.1594E+02
  14.330  0.1662E+00  0.1594E+02
  14.340  0.1653E+00  0.1594E+02
  14.350  0.1641E+00  0.1595E+02
  14.360  0.1633E+00  0.1595E+02
  14.370  0.1629E+00  0.1595E+02
  14.380  0.1628E+00  0.1595E+02
  14.390  0.1630E+00  0.1595E+02
  14.400  0.1635E+00  0.1595E+02
  14.410  0.1644E+00  0.1596E+02
  14.420  0.1656E+00  0.1596E+02
  14.430  0.1687E+00  0.1596E+02
  14.440  0.1726E+00  0.1596E+02
  14.450  0.1754E+00  0.1596E+02
  14.460  0.1769E+00  0.1596E+02
  14.470  0.1772E+00  0.1597E+02
  14.480  0.1762E+00  0.1597E+02
  14.490  0.1741E+00  0.1597E+02
  14.500  0.1708E+00  0.1597E+02
  14.510  0.1663E+00  0.1597E+02
  14.520  0.1606E+00  0.1597E+02
  14.530  0.1537E+00  0.1598E+02
  14.540  0.1456E+00  0.1598E+02
  14.550  0.1363E+00  0.1598E+02
  14.560  0.1258E+00  0.1598E+02
  14.570  0.1142E+00  0.1598E+02
  14.580  0.1013E+00  0.1598E+02
  14.590  0.8747E-01  0.1598E+02
  14.600  0.8089E-01  0.1598E+02
  14.610  0.7397E-01  0.1599E+02
  14.620  0.6671E-01  0.1599E+02
  14.630  0.5910E-01  0.1599E+02
  14.640  0.5114E-01  0.1599E+02
  14.650  0.4416E-01  0.1599E+02
  14.660  0.4313E-01  0.1599E+02
  14.670  0.4210E-01  0.1599E+02
  14.680  0.4109E-01  0.1599E+02
  14.690  0.4010E-01  0.1599E+02
  14.700  0.3911E-01  0.1599E+02
  14.710  0.3814E-01  0.1599E+02
  14.720  0.3718E-01  0.1599E+02
  14.730  0.3623E-01  0.1599E+02
  14.740  0.3529E-01  0.1599E+02
  14.750  0.3437E-01  0.1599E+02
  14.760  0.3346E-01  0.1599E+02
  14.770  0.3256E-01  0.1599E+02
  14.780  0.3167E-01  0.1599E+02
  14.790  0.3080E-01  0.1599E+02
  14.800  0.2993E-01  0.1599E+02
  14.810  0.2908E-01  0.1599E+02
  14.820  0.2825E-01  0.1599E+02
  14.830  0.2742E-01  0.1599E+02
  14.840  0.2661E-01  0.1599E+02
  14.850  0.2580E-01  0.1599E+02
  14.860  0.2502E-01  0.1599E+02
  14.870  0.2424E-01  0.1599E+02
  14.880  0.2347E-01  0.1600E+02
  14.890  0.2272E-01  0.1600E+02
  14.900  0.2198E-01  0.1600E+02
  14.910  0.2125E-01  0.1600E+02
  14.920  0.2054E-01  0.1600E+02
  14.930  0.1983E-01  0.1600E+02
  14.940  0.1914E-01  0.1600E+02
  14.950  0.1846E-01  0.1600E+02
  14.960  0.1780E-01  0.1600E+02
  14.970  0.1714E-01  0.1600E+02
  14.980  0.1650E-01  0.1600E+02
  14.990  0.1587E-01  0.1600E+02
  15.000  0.1525E-01  0.1600E+02
  15.010  0.1465E-01  0.1600E+02
  15.020  0.1406E-01  0.1600E+02
  15.030  0.1347E-01  0.1600E+02
  15.040  0.1291E-01  0.1600E+02
  15.050  0.1235E-01  0.1600E+02
  15.060  0.1181E-01  0.1600E+02
  15.070  0.1127E-01  0.1600E+02
  15.080  0.1075E-01  0.1600E+02
  15.090  0.1025E-01  0.1600E+02
  15.100  0.9752E-02  0.1600E+02
  15.110  0.9269E-02  0.1600E+02
  15.120  0.8799E-02  0.1600E+02
  15.130  0.8341E-02  0.1600E+02
  15.140  0.7895E-02  0.1600E+02
  15.150  0.7461E-02  0.1600E+02
  15.160  0.7039E-02  0.1600E+02
  15.170  0.6630E-02  0.1600E+02
  15.180  0.6233E-02  0.1600E+02
  15.190  0.5848E-02  0.1600E+02
  15.200  0.5476E-02  0.1600E+02
  15.210  0.5116E-02  0.1600E+02
  15.220  0.4768E-02  0.1600E+02
  15.230  0.4432E-02  0.1600E+02
  15.240  0.4109E-02  0.1600E+02
  15.250  0.3797E-02  0.1600E+02
  15.260  0.3498E-02  0.1600E+02
  15.270  0.3212E-02  0.1600E+02
  15.280  0.2937E-02  0.1600E+02
  15.290  0.2675E-02  0.1600E+02
  15.300  0.2425E-02  0.1600E+02
  15.310  0.2188E-02  0.1600E+02
  15.320  0.1962E-02  0.1600E+02
  15.330  0.1749E-02  0.1600E+02
  15.340  0.1548E-02  0.1600E+02
  15.350  0.1359E-02  0.1600E+02
  15.360  0.1183E-02  0.1600E+02
  15.370  0.1019E-02  0.1600E+02
  15.380  0.8669E-03  0.1600E+02
  15.390  0.7273E-03  0.1600E+02
  15.400  0.5999E-03  0.1600E+02
  15.410  0.4848E-03  0.1600E+02
  15.420  0.3819E-03  0.1600E+02
  15.430  0.2913E-03  0.1600E+02
  15.440  0.2129E-03  0.1600E+02
  15.450  0.1468E-03  0.1600E+02
  15.460  0.9295E-04  0.1600E+02
  15.470  0.5135E-04  0.1600E+02
  15.480  0.2200E-04  0.1600E+02
  15.490  0.4907E-05  0.1600E+02
  15.500  0.0000E+00  0.1600E+02
  15.510  0.0000E+00  0.1600E+02
  15.520  0.0000E+00  0.1600E+02
  15.530  0.0000E+00  0.1600E+02
  15.540  0.0000E+00  0.1600E+02
  15.550  0.0000E+00  0.1600E+02
  15.560  0.0000E+00  0.1600E+02
  15.570  0.0000E+00  0.1600E+02
  15.580  0.0000E+00  0.1600E+02
  15.590  0.0000E+00  0.1600E+02
  15.600  0.0000E+00  0.1600E+02
  15.610  0.0000E+00  0.1600E+02
  15.620  0.0000E+00  0.1600E+02
  15.630  0.0000E+00  0.1600E+02
  15.640  0.0000E+00  0.1600E+02
  15.650  0.0000E+00  0.1600E+02
  15.660  0.0000E+00  0.1600E+02
  15.670  0.0000E+00  0.1600E+02
  15.680  0.0000E+00  0.1600E+02
  15.690  0.0000E+00  0.1600E+02
  15.700  0.0000E+00  0.1600E+02
  15.710  0.0000E+00  0.1600E+02
  15.720  0.0000E+00  0.1600E+02
  15.730  0.0000E+00  0.1600E+02
  15.740  0.0000E+00  0.1600E+02
  15.750  0.0000E+00  0.1600E+02
  15.760  0.0000E+00  0.1600E+02
  15.770  0.0000E+00  0.1600E+02
  15.780  0.0000E+00  0.1600E+02
  15.790  0.0000E+00  0.1600E+02
  15.800  0.0000E+00  0.1600E+02
  15.810  0.0000E+00  0.1600E+02
  15.820  0.0000E+00  0.1600E+02
  15.830  0.0000E+00  0.1600E+02
  15.840  0.0000E+00  0.1600E+02
  15.850  0.0000E+00  0.1600E+02
  15.860  0.0000E+00  0.1600E+02
  15.870  0.0000E+00  0.1600E+02
  15.880  0.0000E+00  0.1600E+02
  15.890  0.0000E+00  0.1600E+02
  15.900  0.0000E+00  0.1600E+02
  15.910  0.0000E+00  0.1600E+02
  15.920  0.0000E+00  0.1600E+02
  15.930  0.0000E+00  0.1600E+02
  15.940  0.0000E+00  0.1600E+02
  15.950  0.0000E+00  0.1600E+02
  15.960  0.0000E+00  0.1600E+02
  15.970  0.0000E+00  0.1600E+02
  15.980  0.0000E+00  0.1600E+02
  15.990  0.0000E+00  0.1600E+02
  16.000  0.0000E+00  0.1600E+02
